Time:250Hz,Epoch,10,14,15,Event Id,Event Date,Event Duration
0.0000000000,0,-0.0000000000,-0.0000000000,-0.0000000000,,,
0.0040000000,0,-0.1108250985,-0.1088497690,-0.1035437303,32769,0.0059714867,0.0000000000
0.0079999999,1,-0.7254535505,-0.7119897794,-0.6935703410,,,
0.0119999999,1,-2.0709859189,-2.0344825363,-2.0420632695,,,
0.0159999998,2,-3.3036741177,-3.2591957081,-3.3957027421,,,
0.0199999998,2,-2.9818251938,-2.9825187026,-3.2369183870,,,
0.0240000000,3,-0.9196977341,-1.0219299308,-1.0437638157,,,
0.0279999999,3,1.4669066600,1.2230071992,1.9901395799,,,
0.0319999999,4,3.0377045757,2.6091520562,4.4332965297,,,
0.0359999998,4,3.9651730557,3.3417105470,5.8881429497,,,
0.0399999998,5,4.4842206167,3.7938268103,6.3139597995,,,
0.0439999998,5,3.9945669270,3.5256135643,5.2159049535,,,
0.0480000000,6,2.2732466705,2.3196913895,2.4896514041,,,
0.0519999999,6,0.4200646376,1.0905271366,-0.7002648372,,,
0.0559999999,7,-0.4914219956,0.6919475086,-2.9714304905,,,
0.0599999998,7,-0.7997075316,0.6693156605,-4.1464319209,,,
0.0639999998,8,-1.2494290085,0.2472934151,-4.7045015840,,,
0.0679999997,8,-1.5250520089,-0.2587274378,-4.4746642725,,,
0.0719999999,9,-0.9994868767,-0.1675674258,-3.0654195103,,,
0.0759999999,9,-0.1992630959,0.1271949124,-1.1600173808,,,
0.0799999998,10,-0.1723378183,-0.2679789129,-0.0681474438,,,
0.0839999998,10,-0.8703011213,-1.2167816553,-0.0989271418,,,
0.0880000000,11,-1.4991516917,-1.9537730631,-0.5302130042,,,
0.0919999999,11,-2.0585107074,-2.6240956124,-1.0188708288,,,
0.0959999999,12,-3.0459291457,-3.9160355378,-1.7463593504,,,
0.0999999999,12,-3.8745599416,-5.3153580407,-2.1979574013,,,
0.1039999998,13,-3.1649621018,-5.2512334801,-1.2132373397,,,
0.1079999998,13,-0.7269696148,-3.1492837721,1.3685609310,,,
0.1120000000,14,2.0875208901,-0.0861814945,4.2158303744,,,
0.1159999999,14,4.1569579926,2.7527092330,6.0557960301,,,
0.1199999999,15,5.3949497881,4.9674656839,6.7130568255,,,
0.1239999998,15,5.5999522036,6.0401218640,6.2524403741,,,
0.1279999998,16,4.0620597118,5.0739887770,4.3432423922,,,
0.1319999998,16,0.9819914217,2.2235868340,1.2364336203,,,
0.1359999999,17,-2.0270011161,-0.8055426299,-1.6866355529,,,
0.1399999999,17,-3.6666108936,-2.5152668195,-3.2658290092,,,
0.1439999999,18,-4.1358704306,-2.9273026471,-3.7115398118,,,
0.1479999998,18,-3.9301235398,-2.5254388719,-3.6784083204,,,
0.1519999998,19,-2.7071474667,-1.0964096283,-3.0795920809,,,
0.1559999997,19,-0.3576182278,1.3503309188,-1.7631932031,,,
0.1599999999,20,1.8796960351,3.5179226838,-0.5668890863,,,
0.1639999999,20,2.6329172022,3.9842912300,-0.5105630663,,,
0.1679999998,21,2.0522843679,2.8892572415,-1.3555400972,,,
0.1719999998,21,1.1902631499,1.4128600193,-2.0058817013,,,
0.1760000000,22,0.3979201814,0.1224835294,-2.0343713542,,,
0.1799999999,22,-0.5022837225,-1.0705965918,-1.7856376381,,,
0.1839999999,23,-1.0368017785,-1.8333474208,-1.2261314077,,,
0.1879999998,23,-0.5427908981,-1.6988141569,0.0433169006,,,
0.1919999998,24,0.3648902002,-1.3171943700,1.5628449680,,,
0.1959999998,24,0.2208343936,-2.0207132549,2.0643134188,,,
0.2000000000,25,-1.3159625422,-3.9764434743,1.0779419456,,,
0.2039999999,25,-3.1462463395,-5.9569532456,-0.5375072009,,,
0.2079999999,26,-4.3746116066,-7.0011929550,-1.9006578873,,,
0.2119999998,26,-4.9040352304,-7.0182178432,-2.8418253988,,,
0.2159999998,27,-4.2988001381,-5.6606564430,-3.0192755425,,,
0.2199999997,27,-1.6693143317,-2.1722828889,-1.5721364082,,,
0.2239999999,28,2.6583781427,3.0110306066,1.5605503111,,,
0.2279999999,28,6.6539818953,7.7880893247,4.9224806856,,,
0.2319999998,29,8.5395992769,10.3195999140,6.9559469597,,,
0.2359999998,29,8.2593195301,10.5106278309,7.3877902304,,,
0.2400000000,30,6.5204019125,9.0837320752,6.6070459494,,,
0.2439999999,30,3.6146178928,6.3510780921,4.6155404811,,,
0.2479999999,31,-0.0021273104,2.7081181602,1.4959333716,,,
0.2519999999,31,-3.0494449333,-0.6732561415,-1.7890327381,,,
0.2559999998,32,-4.4829050259,-2.7549956850,-4.1145141936,,,
0.2599999998,32,-4.6248302853,-3.6876484589,-5.3404588878,,,
0.2640000000,33,-4.2915725998,-4.0466734523,-5.8458719342,,,
0.2679999999,33,-3.4475378342,-3.6556899570,-5.3884345308,,,
0.2719999999,34,-1.8276174724,-2.2595511554,-3.5602136347,,,
0.2759999998,34,-0.1979510923,-0.7199927582,-1.0389596956,,,
0.2799999998,35,0.4198098531,-0.1792442691,0.8769348516,,,
0.2839999998,35,0.3423593433,-0.4247689524,1.8536719412,,,
0.2879999999,36,0.6723822528,-0.3672574568,2.5019202100,,,
0.2919999999,36,1.4927282542,0.1927351620,2.9397650340,,,
0.2959999999,37,1.9488208201,0.5562955275,2.6249811188,,,
0.2999999998,37,1.8418145421,0.5863045814,1.6048216110,,,
0.3039999998,38,1.6903538993,0.7555160570,0.6453532298,,,
0.3079999997,38,1.3096175871,0.8011665076,-0.0790616993,,,
0.3119999999,39,-0.1156528529,-0.1808202174,-1.2114191706,,,
0.3159999999,39,-2.3128767375,-2.0319679947,-2.7903584769,,,
0.3199999998,40,-3.7048105442,-3.2619352228,-3.7536475933,,,
0.3239999998,40,-3.3212617732,-2.8989400514,-3.3504591574,,,
0.3280000000,41,-1.7224641832,-1.4524746955,-2.0390072884,,,
0.3319999999,41,0.2771136421,0.2979413037,-0.5014803593,,,
0.3359999999,42,2.4466944836,2.1755240934,1.1856146158,,,
0.3399999999,42,4.2146041864,3.7240072581,2.7814787618,,,
0.3439999998,43,4.3307826078,3.7812021584,3.3306635105,,,
0.3479999998,43,2.3926539768,1.9045714609,2.3180534951,,,
0.3520000000,44,-0.2933318915,-0.7102135174,0.6440313731,,,
0.3559999999,44,-2.2992089653,-2.6948092383,-0.5094925881,,,
0.3599999999,45,-3.6217981213,-4.0403205803,-1.1593892742,,,
0.3639999998,45,-4.6785134821,-5.1657613691,-1.8561056877,,,
0.3679999998,46,-4.8256596107,-5.4449036371,-2.2283386584,,,
0.3719999997,46,-3.2939345353,-4.0508856752,-1.5087096533,,,
0.3759999999,47,-0.8529570148,-1.5928045799,-0.0752101676,,,
0.3799999999,47,0.9464179432,0.5077207966,0.8871154861,,,
0.3839999998,48,1.7573476952,1.8813587180,1.0779786537,,,
0.3879999998,48,2.3337555029,3.1653342646,1.2083965862,,,
0.3920000000,49,2.8534585965,4.4214510286,1.5478661547,,,
0.3959999999,49,2.8199542853,5.0089216910,1.6123243226,,,
0.3999999999,50,2.4315256342,4.9234938614,1.3484968624,,,
0.4039999999,50,2.4857327887,4.8179832152,1.3322323629,,,
0.4079999998,51,2.8557620608,4.6150211686,1.5446349057,,,
0.4119999998,51,2.5307388563,3.5184925150,1.1934781046,,,
0.4160000000,52,1.3500956405,1.6072592518,0.1328010570,,,
0.4199999999,52,0.2783975161,0.0155209551,-0.7121064398,,,
0.4239999999,53,-0.2736826441,-0.7888416349,-0.7827744036,,,
0.4279999998,53,-0.9478556331,-1.5424897021,-0.6262596398,,,
0.4319999998,54,-1.8886384284,-2.5923627042,-0.6886251000,,,
0.4359999998,54,-2.1519364049,-3.1238630188,-0.5004484607,,,
0.4399999999,55,-1.3237081968,-2.6403825739,0.2014156227,,,
0.4439999999,55,-0.4426382485,-1.9673521551,0.5727483336,,,
0.4479999999,56,-0.4755941688,-1.9218789168,-0.1603079648,,,
0.4519999998,56,-1.0054528044,-2.0809973754,-1.4301004753,,,
0.4559999998,57,-1.3042576301,-1.7927409706,-2.1877931695,,,
0.4599999997,57,-1.5962874372,-1.3871395896,-2.3276813202,,,
0.4639999999,58,-2.2270798605,-1.3838836399,-2.2986914595,,,
0.4679999999,58,-2.5648700933,-1.4014553674,-1.9785565993,,,
0.4719999998,59,-1.9305772126,-0.9441632296,-1.0572702221,,,
0.4759999998,59,-0.9015579448,-0.5435740844,-0.0650641743,,,
0.4800000000,60,-0.4817367506,-0.9460700920,0.1675588922,,,
0.4839999999,60,-0.5363133817,-1.6950846633,-0.1691558262,,,
0.4879999999,61,-0.2604227011,-1.7043967970,-0.1787957868,,,
0.4919999999,61,0.3194206067,-0.8247528084,0.3120983696,,,
0.4959999998,62,0.6331699861,0.3356414623,0.7483564845,,,
0.4999999998,62,0.9380908500,1.7331329212,1.0978904103,,,
0.5040000000,63,1.9595434002,3.6661204352,1.8815738593,,,
0.5079999999,63,3.3109610432,5.3995161373,2.8983758198,,,
0.5119999999,64,3.7146161344,5.4926486676,3.1629405658,,,
0.5159999998,64,2.9056298581,3.7347158212,2.4175323854,,,
0.5199999998,65,1.9247717267,1.4533914807,1.5409333561,,,
0.5239999997,65,1.2988148157,-0.3577335773,1.0465684762,,,
0.5279999999,66,0.3838028234,-1.8811176135,0.3426235513,,,
0.5319999999,66,-1.0729410717,-3.1527263821,-0.9577475138,,,
0.5359999998,67,-2.1319829607,-3.3663153938,-2.0859577413,,,
0.5399999998,67,-2.0760523015,-2.1827446580,-2.2259049591,,,
0.5440000000,68,-1.4289342749,-0.5543184168,-1.6808032874,,,
0.5480000000,68,-0.8498163176,0.5413210397,-1.1381779061,,,
0.5519999999,69,-0.1625054924,1.1841764398,-0.6113437279,,,
0.5559999999,69,0.7112054318,1.6197436806,0.0157164129,,,
0.5599999998,70,1.0048456630,1.3982259950,0.2123655851,,,
0.5639999998,70,0.2952184140,0.3415980464,-0.4078902661,,,
0.5680000000,71,-0.5050408950,-0.5748846930,-1.1372545527,,,
0.5719999999,71,-0.4116654039,-0.4332972787,-1.0456149478,,,
0.5759999999,72,0.1219560075,0.1857797282,-0.3626637781,,,
0.5799999998,72,0.0720167156,0.1166540024,0.0299722192,,,
0.5839999998,73,-0.4197340379,-0.5656930250,0.1141206359,,,
0.5879999998,73,-0.4391744491,-0.8673659853,0.5890279720,,,
0.5919999999,74,0.0647821081,-0.5749182012,1.4508679774,,,
0.5959999999,74,0.4255047630,-0.2519703763,1.9797237387,,,
0.5999999999,75,0.6665207692,0.1281066519,2.0465858694,,,
0.6039999998,75,1.2893546890,1.0410125869,2.1709509603,,,
0.6079999998,76,1.8591230875,2.0139115885,2.2586627512,,,
0.6119999997,76,1.2780399301,1.8404635874,1.5149322898,,,
0.6159999999,77,-0.4607791698,0.3565395335,-0.1487722925,,,
0.6199999999,77,-2.0978222827,-1.2610261671,-1.7243615730,,,
0.6239999998,78,-2.8496429647,-2.1862038822,-2.4991414953,,,
0.6279999998,78,-3.0571658784,-2.6893469395,-2.8057461819,,,
0.6320000000,79,-2.8978209804,-2.9278826111,-2.9574758268,,,
0.6359999999,79,-1.9009434696,-2.3888394255,-2.5536024103,,,
0.6399999999,80,-0.2504539115,-1.1081406440,-1.4866062361,,,
0.6439999999,80,0.8173309502,-0.1403230171,-0.5975220099,,,
0.6479999998,81,0.6703944575,-0.0405682435,-0.5049463264,,,
0.6519999998,81,0.1662386594,-0.0271238744,-0.6474652658,,,
0.6560000000,82,0.1436172158,0.5546709348,-0.3139382066,,,
0.6599999999,82,0.2174315151,1.0951983160,0.2176234396,,,
0.6639999999,83,-0.0500938109,0.9657757536,0.4643242939,,,
0.6679999998,83,0.0583051741,0.8199938599,0.8617078178,,,
0.6719999998,84,1.3017542780,1.5435557024,2.0316030724,,,
0.6759999997,84,3.0036678643,2.7029341059,3.4627339775,,,
0.6799999999,85,3.8572765306,3.1861467285,4.0162379158,,,
0.6839999999,85,3.5873406174,2.8048317730,3.4260437625,,,
0.6879999998,86,2.6962580792,2.1059387721,2.2654355590,,,
0.6919999998,86,1.1985660493,1.1053516480,0.7449352590,,,
0.6960000000,87,-1.0248243991,-0.4712513125,-1.2585336816,,,
0.7000000000,87,-3.0052747753,-1.9780778832,-3.1036668314,,,
0.7039999999,88,-3.3151547806,-2.2673573412,-3.6061607498,,,
0.7079999999,88,-1.9263503355,-1.3374154998,-2.5833851635,,,
0.7119999998,89,-0.2129994750,-0.3628483340,-1.1289401239,,,
0.7159999998,89,0.8666395144,-0.0392353584,-0.1355507864,,,
0.7200000000,90,1.3605995518,-0.0775128554,0.4290107699,,,
0.7239999999,90,1.1826223888,-0.3777618088,0.6000223983,,,
0.7279999999,91,-0.1205858954,-1.3549639491,-0.0195825208,,,
0.7319999998,91,-2.1239981906,-2.7524475070,-1.2659636736,,,
0.7359999998,92,-3.3785289269,-3.3785471536,-2.0248880191,,,
0.7399999998,92,-3.1148820319,-2.6225583543,-1.5564525905,,,
0.7439999999,93,-2.0584808054,-1.2336252015,-0.4336290279,,,
0.7479999999,93,-1.0303895165,-0.0285970533,0.5042940780,,,
0.7519999999,94,0.1104986325,1.1244974360,1.3066443249,,,
0.7559999998,94,1.4485324183,2.3478228021,2.2349314632,,,
0.7599999998,95,2.1731953129,2.9015521879,2.7808215281,,,
0.7639999997,95,1.7819963335,2.2942166387,2.3914361903,,,
0.7679999999,96,1.1273828689,1.3413408560,1.5443856792,,,
0.7719999999,96,1.1510642753,1.0090817000,1.0179900729,,,
0.7759999998,97,1.3720221993,0.9339074901,0.5746646442,,,
0.7799999998,97,0.7739273301,0.2266539525,-0.5171316613,,,
0.7840000000,98,-0.4792733360,-0.8937131762,-2.0224810547,,,
0.7879999999,98,-1.4201336924,-1.4884266725,-2.9507911141,,,
0.7919999999,99,-1.8022384124,-1.4232848062,-2.9893828993,,,
0.7959999999,99,-1.9481093070,-1.2366204624,-2.5897385376,,,
0.7999999998,100,-1.5185342186,-0.8493019380,-1.7838415433,,,
0.8039999998,100,0.1033288426,0.2245814965,-0.1636953972,,,
0.8080000000,101,2.3533749198,1.5379045847,1.8970309293,,,
0.8119999999,101,3.8167164229,1.9777292790,3.2398134558,,,
0.8159999999,102,4.0178873233,1.4113882992,3.3944213325,,,
0.8199999998,102,3.5969165915,0.7546145567,2.9705407877,,,
0.8239999998,103,2.7458420779,0.3196718742,2.3481893144,,,
0.8279999997,103,0.9509745791,-0.5161456525,1.1492992715,,,
0.8319999999,104,-1.4650748478,-1.7393374714,-0.5669762336,,,
0.8359999999,104,-3.0441010309,-2.2182349762,-1.7614472791,,,
0.8399999999,105,-3.0258215398,-1.3433294007,-1.7555217838,,,
0.8439999998,105,-2.2462979749,0.0555898106,-1.1617509527,,,
0.8480000000,106,-1.6242869889,1.0490721110,-0.7892929227,,,
0.8520000000,106,-0.9936229681,1.7388201024,-0.5323542734,,,
0.8559999999,107,-0.1500609214,2.3445642816,-0.1068625563,,,
0.8599999999,107,0.1902783515,2.2918706988,-0.0000696967,,,
0.8639999998,108,-0.5157002480,1.1857063313,-0.7109148490,,,
0.8679999998,108,-1.5484428546,-0.2104985061,-1.6966920086,,,
0.8720000000,109,-1.9716947359,-1.0162427785,-2.0805337635,,,
0.8759999999,109,-1.9708842445,-1.5063633818,-1.9095667916,,,
0.8799999999,110,-2.0969199473,-2.2984689710,-1.7266935827,,,
0.8839999998,110,-1.9466308840,-2.9859990793,-1.3739779665,,,
0.8879999998,111,-0.8426826863,-2.7583519139,-0.3451718339,,,
0.8919999998,111,0.7299117497,-1.8413072464,0.9827809799,,,
0.8959999999,112,1.6823899469,-1.0879663836,1.6691369362,,,
0.8999999999,112,1.9624696024,-0.5117856089,1.6588583674,,,
0.9039999999,113,2.3380044563,0.4879651842,1.7410944739,,,
0.9079999998,113,2.8220528426,1.6786442941,2.0745188545,,,
0.9119999998,114,2.7186753909,2.1531135786,1.9786445865,,,
0.9159999997,114,2.1295351811,1.9014239003,1.3149267295,,,
0.9199999999,115,1.9644276412,1.8666498526,0.8511391832,,,
0.9239999999,115,2.3363215038,2.3073395509,0.9611002953,,,
0.9279999998,116,2.3190183543,2.4201449266,1.0946706608,,,
0.9319999998,116,1.5673532375,1.8688985514,0.9362334898,,,
0.9360000000,117,0.8254407289,1.3634970551,0.9682209540,,,
0.9399999999,117,0.4148917204,1.2466722492,1.3350232452,,,
0.9439999999,118,-0.3816792580,0.8150903462,1.2527698684,,,
0.9479999999,118,-1.8272153219,-0.3098203169,0.2597569406,,,
0.9519999998,119,-2.9758800935,-1.3605533053,-0.9374815048,,,
0.9559999998,119,-3.1857635970,-1.7422445704,-1.6435494148,,,
0.9600000000,120,-3.1815470375,-2.0714918769,-2.2942529725,,,
0.9639999999,120,-3.7357438748,-3.0201873817,-3.5272806343,,,
0.9679999999,121,-4.3775962026,-4.1067764597,-4.9362768674,,,
0.9719999998,121,-4.3924422255,-4.6088352254,-5.7189872162,,,
0.9759999998,122,-4.1022587478,-4.7731246601,-5.8882101695,,,
0.9799999997,122,-4.0077705340,-5.0133424676,-5.7904801956,,,
0.9839999999,123,-3.5102868904,-4.6877620156,-4.9750755359,,,
0.9879999999,123,-1.7830028269,-2.9303721573,-2.7332383437,,,
0.9919999999,124,0.6873630212,-0.1773817355,0.5031799001,,,
0.9959999998,124,2.7075332988,2.3333736808,3.4356591825,,,
1.0000000000,125,4.0595166938,4.1795351400,5.4450751431,,,
1.0040000000,125,5.2847716994,5.6771919981,6.7867907806,,,
1.0079999999,126,6.1762955642,6.5568505648,7.3936477090,,,
1.0119999999,126,5.9400436504,6.1268573906,6.7673480742,,,
1.0159999998,127,4.7539663093,4.7169667717,5.1899580653,,,
1.0199999998,127,3.7334601943,3.5796625054,3.7960583078,,,
1.0240000000,128,3.2206400772,3.1426716086,3.0611697331,,,
1.0279999999,128,2.4379880693,2.5863392279,2.2752434473,,,
1.0319999999,129,1.0667412917,1.4059434652,0.9197339122,,,
1.0359999998,129,-0.1647814136,0.1351200477,-0.4835675187,,,
1.0399999998,130,-0.8410549168,-0.8543741994,-1.3866907195,,,
1.0439999998,130,-1.4791027437,-1.9603113939,-2.0225086840,,,
1.0480000000,131,-2.2209320330,-3.1380115115,-2.5463715215,,,
1.0519999999,131,-2.1925291261,-3.3270049271,-2.3658588845,,,
1.0559999999,132,-0.9879747196,-1.9800242690,-1.1969424790,,,
1.0599999998,132,0.3441824397,-0.1271837605,0.0400067256,,,
1.0639999998,133,0.7461980181,1.0192703727,0.3547254903,,,
1.0679999997,133,0.5391990510,1.5229487271,0.0106708995,,,
1.0719999999,134,0.3700555808,1.8163897888,-0.2582831218,,,
1.0759999999,134,-0.1575745838,1.3980172759,-0.6311183828,,,
1.0799999998,135,-1.5821566304,-0.3106816264,-1.6817931937,,,
1.0839999998,135,-3.1880830794,-2.5653796894,-3.0483295538,,,
1.0880000000,136,-3.8528980104,-4.0537762863,-3.8280036441,,,
1.0919999999,136,-3.6927028195,-4.5459640795,-3.9521158930,,,
1.0959999999,137,-3.5420604807,-4.5759046683,-3.9631891823,,,
1.0999999999,137,-3.2721541920,-3.9775435374,-3.6498962469,,,
1.1039999998,138,-2.0645853883,-2.1711782097,-2.2165609821,,,
1.1079999998,138,-0.1200160265,0.3011025556,0.1406108199,,,
1.1120000000,139,1.3525534948,1.9695167984,2.0725355758,,,
1.1159999999,139,1.8065279943,2.2164286569,2.7053881660,,,
1.1199999999,140,1.6730915388,1.6319734959,2.3481313306,,,
1.1239999998,140,1.0738647535,0.6476806494,1.4586335560,,,
1.1279999998,141,-0.3086211829,-0.8100961957,0.1284320710,,,
1.1319999998,141,-1.9255369871,-2.1911933165,-1.0963202217,,,
1.1359999999,142,-2.3888053608,-2.3059377194,-1.1251334543,,,
1.1399999999,142,-1.2596075064,-0.9348730798,0.2897820527,,,
1.1439999999,143,0.3855594998,0.7266117738,1.9879653692,,,
1.1479999998,143,1.6262937775,1.7616768705,2.8455646297,,,
1.1519999998,144,2.7078870532,2.5268787211,2.9555698851,,,
1.1559999997,144,3.8005245770,3.3579142230,2.7786730150,,,
1.1599999999,145,4.1036158820,3.5682869194,2.1328493459,,,
1.1639999999,145,3.1739051746,2.7040747254,0.9616007640,,,
1.1679999998,146,2.0279997453,1.6853743832,0.2199482486,,,
1.1719999998,146,1.7879821316,1.5471992546,0.8053330062,,,
1.1760000000,147,2.0987933774,1.8857089668,2.1267339467,,,
1.1799999999,147,1.9814346553,1.6849826861,2.8039792624,,,
1.1839999999,148,1.4397229751,0.9697628398,2.3864500283,,,
1.1879999998,148,1.0108719472,0.4206784083,1.3642478679,,,
1.1919999998,149,0.4016880114,-0.0881665480,-0.1011492220,,,
1.1959999998,149,-1.0392876975,-1.1852222312,-2.1880468717,,,
1.2000000000,150,-2.8682171561,-2.5396976974,-4.3113295496,,,
1.2039999999,150,-3.9475714855,-3.1249397246,-5.3456995144,,,
1.2079999999,151,-4.1156293480,-2.8384921042,-5.0967445330,,,
1.2119999998,151,-4.1325245308,-2.5067925527,-4.4150168671,,,
1.2159999998,152,-4.1021056224,-2.3424416370,-3.7315931110,,,
1.2199999997,152,-3.3623781631,-1.7874900119,-2.6456339073,,,
1.2239999999,153,-2.0035159635,-0.9418035153,-1.1658039050,,,
1.2279999999,153,-1.0472673973,-0.6967262651,-0.1083278371,,,
1.2319999998,154,-0.7833539790,-1.1217202393,0.2353820886,,,
1.2359999998,154,-0.2702326569,-1.0605677073,0.7131000198,,,
1.2400000000,155,1.0310375831,0.1551548277,1.9486125199,,,
1.2439999999,155,2.3843726531,1.7667025711,3.3296499371,,,
1.2479999999,156,3.0858819523,2.8692398582,4.0273547039,,,
1.2519999999,156,3.4157469603,3.4564475652,4.1020920228,,,
1.2559999998,157,3.5949472927,3.5583407884,3.8354031529,,,
1.2599999998,157,2.9837681822,2.5401146569,2.8726733535,,,
1.2640000000,158,1.2851581080,0.2547316664,1.0376993939,,,
1.2679999999,158,-0.4401916504,-2.0254448294,-0.7061534580,,,
1.2719999999,159,-1.0412498917,-2.9282457712,-1.2301351168,,,
1.2759999998,159,-0.7626603234,-2.5545133832,-0.7193645971,,,
1.2799999998,160,-0.4418562020,-1.7638335898,-0.1741013909,,,
1.2839999998,160,-0.0519079427,-0.6701737528,0.0928901225,,,
1.2879999999,161,0.7595589654,0.9654476255,0.3639343038,,,
1.2919999999,161,1.4024780799,2.4901962494,0.3609152018,,,
1.2959999999,162,1.0296487155,2.9068708963,-0.4922453227,,,
1.2999999998,162,0.0531278058,2.3547829159,-1.7966205753,,,
1.3039999998,163,-0.4281721292,1.7376523321,-2.4626325202,,,
1.3079999997,163,-0.4135152631,1.1312412659,-2.2896277604,,,
1.3119999999,164,-0.8208609829,-0.0887082015,-2.0751224527,,,
1.3159999999,164,-1.7630377766,-1.7284433928,-2.1369434433,,,
1.3199999998,165,-2.4472823545,-2.8204906689,-1.9593249939,,,
1.3239999998,165,-2.6916998956,-3.1693529564,-1.4160389183,,,
1.3280000000,166,-3.0692857801,-3.4759567241,-1.0757400526,,,
1.3319999999,166,-3.4675115474,-3.8293988511,-1.0024945644,,,
1.3359999999,167,-2.9749916188,-3.4583601955,-0.4722793639,,,
1.3399999999,167,-1.4889791526,-2.2335799198,0.6750398298,,,
1.3439999998,168,-0.0378361694,-1.0287582508,1.5629664244,,,
1.3479999998,168,0.9419785943,-0.1390351825,1.7407444672,,,
1.3520000000,169,2.2742509589,1.2983762672,2.0153746497,,,
1.3559999999,169,4.3707186974,3.6520013778,3.0897891116,,,
1.3599999999,170,6.2259744974,5.8205948538,4.3701601649,,,
1.3639999998,170,6.8598069102,6.6869817280,4.9450458017,,,
1.3679999998,171,6.5324482923,6.4160437189,4.8228202271,,,
1.3719999997,171,5.6660052548,5.4870128916,4.2889388971,,,
1.3759999999,172,3.7600132968,3.5806095945,2.9144252596,,,
1.3799999999,172,0.4895297653,0.5153984541,0.3255260247,,,
1.3839999998,173,-3.0712737892,-2.6245711715,-2.6522128537,,,
1.3879999998,173,-5.5378110410,-4.5343273273,-4.7631619375,,,
1.3920000000,174,-6.8349229566,-5.2593055730,-5.8385646029,,,
1.3959999999,174,-7.5609049134,-5.5631840070,-6.4706615203,,,
1.3999999999,175,-7.4131051685,-5.3066744430,-6.5570068067,,,
1.4039999999,175,-5.6396175661,-3.8008346813,-5.4033868190,,,
1.4079999998,176,-2.6461987248,-1.3946458553,-3.1164850028,,,
1.4119999998,176,0.2440002977,0.6859914925,-0.6884184729,,,
1.4160000000,177,2.4133476093,1.9149068725,1.3067850417,,,
1.4199999999,177,4.0252030950,2.6072797071,2.9729759477,,,
1.4239999999,178,4.7117122437,2.6630303663,4.0243265660,,,
1.4279999998,178,3.7223634832,1.5928063104,3.7437427076,,,
1.4319999998,179,1.5297138486,-0.0912712513,2.3539395699,,,
1.4359999998,179,-0.1510175785,-0.9138062442,1.2529528061,,,
1.4399999999,180,-0.3746905095,-0.2950854117,1.3186379400,,,
1.4439999999,180,0.1860476578,0.7956118391,1.9452839727,,,
1.4479999999,181,0.7414857527,1.4447675200,2.2738470686,,,
1.4519999998,181,1.3704173301,1.8023029285,2.3064373831,,,
1.4559999998,182,1.9662306203,1.9781715739,2.1436062499,,,
1.4599999997,182,1.6268272053,1.2903971959,1.2281517289,,,
1.4639999999,183,0.0153923765,-0.5155952994,-0.6982404496,,,
1.4679999999,183,-1.7514007918,-2.3586679050,-2.6944816209,,,
1.4719999998,184,-2.5195688414,-3.0954428090,-3.6566513815,,,
1.4759999998,184,-2.5163321092,-2.8949502977,-3.6848648764,,,
1.4800000000,185,-2.4453632948,-2.4328410675,-3.5138782842,,,
1.4839999999,185,-2.1126043423,-1.5774099575,-3.1716293373,,,
1.4879999999,186,-1.1254067373,-0.0424984551,-2.2889651110,,,
1.4919999999,186,-0.1468727775,1.3929692698,-1.2585527946,,,
1.4959999998,187,-0.0443791153,1.7193368758,-0.8043969056,,,
1.4999999998,187,-0.2949189361,1.3280577531,-0.6093453423,,,
1.5040000000,188,0.3382423083,1.4428009005,0.3440215807,,,
1.5079999999,188,1.8252296352,2.1635314995,2.0598523449,,,
1.5119999999,189,2.9549243358,2.4356556856,3.3856813956,,,
1.5159999998,189,3.2301716020,1.8566488254,3.7064423830,,,
1.5199999998,190,3.2276974359,1.0971367276,3.5589781832,,,
1.5239999997,190,3.0971595017,0.4727897247,3.3447245611,,,
1.5279999999,191,2.2568607045,-0.4406785942,2.7166745609,,,
1.5319999999,191,0.8035289281,-1.5309534356,1.6401389336,,,
1.5359999998,192,-0.2574991309,-1.9102635872,0.8238959659,,,
1.5399999998,192,-0.5887729629,-1.3777108648,0.5229362965,,,
1.5440000000,193,-1.0018275045,-0.8647149386,-0.0034409907,,,
1.5480000000,193,-1.8953965254,-0.9332169143,-1.1892810916,,,
1.5519999999,194,-2.5094756176,-1.0140811431,-2.3132800927,,,
1.5559999999,194,-2.3575695990,-0.7065798446,-2.6717703948,,,
1.5599999998,195,-2.1323376274,-0.6226638225,-2.6440883446,,,
1.5639999998,195,-2.3794819739,-1.1407163409,-2.7616957029,,,
1.5680000000,196,-2.4659380231,-1.4341162201,-2.6330968715,,,
1.5719999999,196,-1.8375556747,-0.7429442750,-1.7943354124,,,
1.5759999999,197,-1.2278528260,0.2980302893,-0.8619729768,,,
1.5799999998,197,-1.4851334645,0.6659242516,-0.7107028070,,,
1.5839999998,198,-2.0703918943,0.4942005067,-1.0525105265,,,
1.5879999998,198,-1.9175439101,0.4852131775,-0.9685541965,,,
1.5919999999,199,-1.0437016732,0.5346736179,-0.3977624806,,,
1.5959999999,199,-0.0796469159,0.2127595506,0.0724944928,,,
1.5999999999,200,1.0686596965,-0.0270052770,0.4851263561,,,
1.6039999998,200,2.7240092759,0.5293476994,1.3217325905,,,
1.6079999998,201,4.1932680808,1.4823907162,2.2968721901,,,
1.6119999997,201,4.4719255897,1.8697764690,2.6175295400,,,
1.6159999999,202,3.8581615760,1.7405660859,2.3552360345,,,
1.6199999999,202,3.4899802790,1.8813129585,2.3433503113,,,
1.6239999998,203,3.5027468952,2.2325274301,2.6967848484,,,
1.6279999998,203,3.0316542375,1.9521015755,2.6321714030,,,
1.6320000000,204,1.9558459980,1.0185601689,1.9092178753,,,
1.6359999999,204,1.1777907292,0.4008581303,1.2631734570,,,
1.6399999999,205,0.9477181433,0.3858783907,1.0314609680,,,
1.6439999999,205,0.3063378430,0.0176507359,0.4622082585,,,
1.6479999998,206,-1.3464178434,-1.3579338270,-1.0451886071,,,
1.6519999998,206,-3.3864991636,-3.1754187585,-2.9927249869,,,
1.6560000000,207,-5.1390875750,-4.7454838373,-4.6587049488,,,
1.6599999999,207,-6.6114883533,-6.0292921466,-5.9188903400,,,
1.6639999999,208,-7.4548949626,-6.7089148876,-6.5055714116,,,
1.6679999998,208,-6.5529926611,-5.7695459829,-5.4875205124,,,
1.6719999998,209,-3.6045322230,-2.9647759601,-2.5019024291,,,
1.6759999997,209,-0.0584639799,0.3091286176,1.2155114982,,,
1.6799999999,210,2.5083931139,2.6006959320,4.0040299601,,,
1.6839999999,210,4.0340174019,4.0055203361,5.4106400633,,,
1.6879999998,211,5.0886665315,5.2351974359,5.8075262216,,,
1.6919999998,211,5.3852044075,6.0181719455,5.1151962303,,,
1.6960000000,212,4.4070572602,5.6504513923,3.1112333267,,,
1.7000000000,212,2.7597674439,4.4529914842,0.5781193315,,,
1.7039999999,213,1.5007200545,3.3249967877,-1.1766147280,,,
1.7079999999,213,0.5772252804,2.2689064297,-1.8558434331,,,
1.7119999998,214,-0.6826429601,0.7508414799,-2.0980816928,,,
1.7159999998,214,-1.8836806998,-0.7587854227,-2.0150619482,,,
1.7200000000,215,-1.8932635861,-1.1204284909,-1.0834410819,,,
1.7239999999,215,-0.7446903844,-0.3715759976,0.4722584261,,,
1.7279999999,216,0.2412508511,0.1618634466,1.4987997067,,,
1.7319999998,216,0.2667995989,-0.3281924533,1.3881463353,,,
1.7359999998,217,-0.3508402320,-1.5042776973,0.6166155100,,,
1.7399999998,217,-1.4349646489,-3.1214465047,-0.4417486028,,,
1.7439999999,218,-3.2950511369,-5.4164304592,-2.0450645327,,,
1.7479999999,218,-5.4279544440,-7.8333242949,-3.9545310294,,,
1.7519999999,219,-6.2998598868,-8.7749219086,-4.9561760173,,,
1.7559999998,219,-5.1512545564,-7.4169633156,-4.2976816628,,,
1.7599999998,220,-2.9186468124,-4.7031698696,-2.7031809289,,,
1.7639999997,220,-0.7103199310,-1.8324335146,-1.1889767592,,,
1.7679999999,221,1.5051558736,1.1376578889,0.2748980997,,,
1.7719999999,221,3.9455689157,4.3753427815,2.0905121182,,,
1.7759999998,222,5.9131609503,7.0980762604,3.8466052002,,,
1.7799999998,222,6.6708500182,8.4020117604,4.8093579778,,,
1.7840000000,223,6.5269173858,8.4537728097,5.0006123589,,,
1.7879999999,223,6.0147471174,7.8137525648,4.7988577768,,,
1.7919999999,224,4.7967978121,6.2983145658,3.9678585042,,,
1.7959999999,224,2.5193844676,3.6489216770,2.1580176780,,,
1.7999999998,225,0.0803828078,0.7481912805,0.0334870088,,,
1.8039999998,225,-1.2314581382,-1.1072610290,-1.2424914948,,,
1.8080000000,226,-1.4293319837,-1.8301253919,-1.5015011480,,,
1.8119999999,226,-1.4395457998,-2.2482900400,-1.4778717831,,,
1.8159999999,227,-1.4487730796,-2.5290848912,-1.3887100146,,,
1.8199999998,227,-1.0007459173,-2.2200456860,-0.8146206669,,,
1.8239999998,228,-0.4241775956,-1.6085311872,0.0408846320,,,
1.8279999997,228,-0.6337689611,-1.5662020791,0.2800324125,,,
1.8319999999,229,-1.5211708033,-2.0187614628,-0.2946173282,,,
1.8359999999,229,-1.9927076082,-1.9680591437,-0.8895495230,,,
1.8399999999,230,-1.7693809393,-1.2334002744,-1.1120687099,,,
1.8439999998,230,-1.7805137430,-0.8579938283,-1.5249844379,,,
1.8480000000,231,-2.4787390471,-1.4413398969,-2.3892516527,,,
1.8520000000,231,-3.1249431322,-2.3270877794,-2.9676704968,,,
1.8559999999,232,-3.2190820026,-2.9177382232,-2.7189855034,,,
1.8599999999,232,-3.2993759669,-3.5225390663,-2.1785682228,,,
1.8639999998,233,-3.6105181163,-4.1818399742,-1.8824807930,,,
1.8679999998,233,-3.1865568829,-3.8037501833,-1.3050333117,,,
1.8720000000,234,-1.1721007182,-1.4617702799,0.2535108547,,,
1.8759999999,234,1.8693953515,2.2181591563,2.4340988757,,,
1.8799999999,235,4.7903077219,5.8046494011,4.3475679669,,,
1.8839999998,235,7.0717708623,8.4204927800,5.6700047200,,,
1.8879999998,236,8.3158775896,9.5171369396,6.2651755827,,,
1.8919999998,236,7.5457503913,8.2592731087,5.3920518283,,,
1.8959999999,237,4.3386517834,4.4864742696,2.5347435434,,,
1.8999999999,237,0.0841791049,-0.2180859385,-1.2981423126,,,
1.9039999999,238,-3.1377781574,-3.7004082624,-4.2499433295,,,
1.9079999998,238,-4.5779755761,-5.2296518780,-5.4482047161,,,
1.9119999998,239,-4.7401964875,-5.3995611496,-5.2624139943,,,
1.9159999997,239,-3.8986918964,-4.5948538550,-4.0748757201,,,
1.9199999999,240,-2.0544624378,-2.8457347350,-2.0074246389,,,
1.9239999999,240,-0.1007267413,-0.9440430988,0.1435549994,,,
1.9279999998,241,0.5238698622,-0.1805731279,1.0435567084,,,
1.9319999998,241,-0.3385683171,-0.6666922114,0.3974065282,,,
1.9360000000,242,-1.3030816279,-1.1302493517,-0.5874518924,,,
1.9399999999,242,-1.3253435938,-0.7161230377,-0.7819615143,,,
1.9439999999,243,-0.6926583106,0.1309624647,-0.2741069838,,,
1.9479999999,243,0.0946802897,0.8387682645,0.4361714042,,,
1.9519999998,244,1.0370288492,1.4621227261,1.2546175179,,,
1.9559999998,244,1.7286484942,1.7817464837,1.8870319771,,,
1.9600000000,245,1.1734108258,1.0076853604,1.5520649099,,,
1.9639999999,245,-0.6368515838,-0.7981272629,0.2002176993,,,
1.9679999999,246,-2.1204850311,-2.1387247972,-0.8717908339,,,
1.9719999998,246,-1.9479512161,-1.8096831049,-0.5169394361,,,
1.9759999998,247,-0.5599233453,-0.3521659973,0.8193919119,,,
1.9799999997,247,0.8503968017,0.9488705536,1.8883607410,,,
1.9839999999,248,1.8896643624,1.6615603264,2.2104610564,,,
1.9879999999,248,2.6239112257,1.9600033828,2.0335903874,,,
1.9919999999,249,2.6367338479,1.6530354850,1.3773913551,,,
1.9959999998,249,1.6706291079,0.6579084229,0.2498020098,,,
2.0000000000,250,0.5813982313,-0.1636465396,-0.6035555708,,,
2.0040000000,250,0.3446591577,0.0476488654,-0.4131613857,,,
2.0079999999,251,0.5275796837,0.7285538317,0.3022224367,,,
2.0119999999,251,0.0119070495,0.6517652400,0.2760966922,,,
2.0159999998,252,-1.1180746131,-0.1951415180,-0.7129568881,,,
2.0199999998,252,-1.7033066046,-0.7098076091,-1.6431744547,,,
2.0240000000,253,-1.2585313585,-0.3902959482,-1.7735459163,,,
2.0279999999,253,-0.2965939096,0.3115179876,-1.2758476608,,,
2.0319999999,254,0.8936802528,1.1718283805,-0.3646168376,,,
2.0359999998,254,2.3852373229,2.3624679351,0.9864278616,,,
2.0399999998,255,3.5067524431,3.3483637720,2.2037094158,,,
2.0439999998,255,3.0835857912,3.0035595006,2.1802124203,,,
2.0480000000,256,1.1902141326,1.2730906526,0.7544195939,,,
2.0519999999,256,-0.6096339439,-0.4721003981,-0.8241140536,,,
2.0559999999,257,-1.2833368235,-1.2795167569,-1.5013622174,,,
2.0599999998,257,-1.4040792289,-1.6717413857,-1.5805950507,,,
2.0639999998,258,-1.7050549823,-2.2885904791,-1.6808983735,,,
2.0679999997,258,-1.9049923480,-2.7398793308,-1.5899332769,,,
2.0719999999,259,-1.7024813091,-2.6043954166,-0.9932389228,,,
2.0759999999,259,-1.6208542039,-2.3819137528,-0.3777581212,,,
2.0799999998,260,-1.9176520518,-2.5060384581,-0.2020368519,,,
2.0839999998,260,-1.7701440008,-2.4032261232,0.0728084433,,,
2.0880000000,261,-0.6033474552,-1.5382043021,1.0637165817,,,
2.0919999999,261,0.6548551747,-0.5819687257,2.1441241279,,,
2.0959999999,262,0.7463180867,-0.4579263501,2.1235593302,,,
2.0999999999,262,-0.1891636664,-0.8578483133,0.8639485507,,,
2.1039999998,263,-1.1515245842,-0.8295156581,-0.8006459929,,,
2.1079999998,263,-1.8715937200,-0.3134089984,-2.3704711292,,,
2.1120000000,264,-2.5853936346,0.1205785402,-3.7417297991,,,
2.1159999999,264,-2.7295732575,0.6585516605,-4.2089962624,,,
2.1199999999,265,-1.3657647012,1.9949514997,-2.7873045851,,,
2.1239999998,265,1.1726190100,3.8238008539,0.2403032186,,,
2.1279999998,266,3.3981675881,4.9225944108,3.2265145183,,,
2.1319999998,266,4.4966194495,4.8498705831,4.9307142053,,,
2.1359999999,267,4.8129815853,4.3143574805,5.4061016762,,,
2.1399999999,267,4.4873486273,3.6653071529,4.9235996734,,,
2.1439999999,268,3.0502686400,2.3391858727,3.2838565363,,,
2.1479999998,268,0.7352969450,0.2122058676,0.7682750886,,,
2.1519999998,269,-1.1937512290,-1.8100880881,-1.4133522437,,,
2.1559999997,269,-2.0310597629,-3.1335692089,-2.4521641389,,,
2.1599999999,270,-2.3791625604,-4.1892748186,-2.8326289906,,,
2.1639999999,270,-2.7571749569,-5.1755189380,-3.2007436280,,,
2.1679999998,271,-2.6669082009,-5.2828060544,-3.2577284667,,,
2.1719999998,271,-1.7531245167,-3.9802172793,-2.5665483473,,,
2.1760000000,272,-0.7496584921,-2.0575097590,-1.5896452254,,,
2.1799999999,272,-0.3747734157,-0.5210636676,-0.9792879513,,,
2.1839999999,273,-0.2196854724,0.6627026082,-0.5039755530,,,
2.1879999998,273,0.3363676851,1.8416017205,0.3544274486,,,
2.1919999998,274,0.9325065663,2.5539135128,1.2625215943,,,
2.1959999998,274,0.9569742236,2.1985366019,1.4957088590,,,
2.2000000000,275,0.7638397757,1.2189828065,1.1645179547,,,
2.2039999999,275,1.0558350113,0.5383663749,0.9785237922,,,
2.2079999999,276,1.5989165776,0.2595086535,1.0534243287,,,
2.2119999998,276,1.6631573126,-0.0459885351,0.9534108289,,,
2.2159999998,277,1.2928852108,-0.2035797023,0.7182066827,,,
2.2199999997,277,1.0264877181,0.2717859165,0.8202735159,,,
2.2239999999,278,0.7426657318,1.0545595656,1.1707605937,,,
2.2279999999,278,-0.0289453505,1.3504465428,1.1645082695,,,
2.2319999998,279,-0.8813103288,1.2309569402,0.7734526743,,,
2.2359999998,279,-0.8599080780,1.4773260026,0.6291366618,,,
2.2400000000,280,-0.0405358193,2.0712365059,0.8271216270,,,
2.2439999999,280,0.4224213891,2.0304413814,0.6361516470,,,
2.2479999999,281,0.0579539072,1.0281792557,-0.1885183293,,,
2.2519999999,281,-0.2867506454,0.0138528455,-0.7654209754,,,
2.2559999998,282,0.0128411520,-0.2861812713,-0.3954597797,,,
2.2599999998,282,0.3810383757,-0.3678790038,0.3615878803,,,
2.2640000000,283,0.2012729067,-0.8230701493,0.6221783337,,,
2.2679999999,283,-0.2140990653,-1.3204948725,0.3458033920,,,
2.2719999999,284,-0.5449351737,-1.4684942885,-0.1878042024,,,
2.2759999998,284,-1.2622208171,-1.6969413566,-1.2289435602,,,
2.2799999998,285,-2.6142189949,-2.4105209374,-2.9323698408,,,
2.2839999998,285,-3.7462726364,-3.1015887068,-4.5213367066,,,
2.2879999999,286,-3.8326538241,-3.2277959119,-5.0978802803,,,
2.2919999999,286,-3.2958128432,-3.1952456917,-4.8064564318,,,
2.2959999999,287,-2.8893635440,-3.4677676882,-4.2384322786,,,
2.2999999998,287,-2.3810699175,-3.4569677801,-3.2367224426,,,
2.3039999998,288,-1.2965171008,-2.4492996248,-1.4081109468,,,
2.3079999997,288,-0.2077072620,-0.9993951199,0.6420678389,,,
2.3119999999,289,0.0827391456,-0.1405198526,1.8777665105,,,
2.3159999999,289,0.1046889429,0.2936844908,2.4181670181,,,
2.3199999998,290,1.0435604910,1.2314121819,3.2837283279,,,
2.3239999998,290,2.8363253583,2.6318668136,4.6357532387,,,
2.3280000000,291,4.3153874742,3.5884133322,5.5184853926,,,
2.3319999999,291,5.0083150363,3.9546982953,5.3963323276,,,
2.3359999999,292,5.4046988700,4.4552627200,4.7287097290,,,
2.3399999999,292,5.5315678628,5.1604950845,3.8480289645,,,
2.3439999998,293,4.7150764354,5.2121499912,2.4710656133,,,
2.3479999998,293,2.9781670005,4.3048973399,0.7097574355,,,
2.3520000000,294,1.3763992446,3.2017050358,-0.5206701821,,,
2.3559999999,294,0.5262800711,2.3871045850,-0.6964847611,,,
2.3599999999,295,-0.0834368807,1.3791569932,-0.4371755503,,,
2.3639999998,295,-0.8731801736,-0.0833711032,-0.4757196416,,,
2.3679999998,296,-1.4456850231,-1.3214850031,-0.7234287635,,,
2.3719999997,296,-1.6879082655,-1.8917816029,-1.0176922507,,,
2.3759999999,297,-2.3639136599,-2.3877968149,-1.8466143072,,,
2.3799999999,297,-3.7166177438,-3.2230149604,-3.3892597819,,,
2.3839999998,298,-4.5604643607,-3.6364605482,-4.6225912965,,,
2.3879999998,298,-3.7891867074,-2.8914022841,-4.4350071667,,,
2.3920000000,299,-1.9005286103,-1.5734345185,-3.0625756886,,,
2.3959999999,299,-0.0579714972,-0.6607711115,-1.4743167244,,,
2.3999999999,300,1.4458538366,-0.1053035438,0.0563342692,,,
2.4039999999,300,2.7084923067,0.5570954121,1.7019276602,,,
2.4079999998,301,3.0988596514,0.9138353499,2.9427763791,,,
2.4119999998,301,1.9993327441,0.2842644105,2.9448182275,,,
2.4160000000,302,0.1603654189,-0.8620218273,1.8999599255,,,
2.4199999999,302,-1.0323671762,-1.4372570644,0.8410641525,,,
2.4239999999,303,-1.3937718770,-1.4376777439,0.1426014366,,,
2.4279999998,303,-1.8308946060,-1.8162859971,-0.7161400518,,,
2.4319999998,304,-2.6343892685,-2.7750779874,-1.8553791517,,,
2.4359999998,304,-3.1941561439,-3.4914294528,-2.6115767131,,,
2.4399999999,305,-3.3186248106,-3.5370750114,-2.6596215643,,,
2.4439999999,305,-3.4218844722,-3.2444935910,-2.4129615044,,,
2.4479999999,306,-3.2806356258,-2.5601544526,-1.9897212441,,,
2.4519999998,306,-2.0044076561,-0.8834154424,-0.8611650739,,,
2.4559999998,307,0.4015580609,1.6180373504,1.0071460734,,,
2.4599999997,307,2.6648051684,3.7288175432,2.6539897948,,,
2.4639999999,308,3.8488901566,4.6636363480,3.3163702135,,,
2.4679999999,308,4.1939711616,4.7719844955,3.2522736142,,,
2.4719999998,309,3.9706371146,4.3828671153,2.8497842320,,,
2.4759999998,309,2.8148295186,3.1640219096,1.8626216693,,,
2.4800000000,310,0.9180738408,1.2861895876,0.2591315068,,,
2.4839999999,310,-0.3294977618,0.0727416154,-0.9998258897,,,
2.4879999999,311,0.1070078740,0.5268122754,-0.9658236073,,,
2.4919999999,311,1.5165566881,1.9673468983,0.0250317719,,,
2.4959999998,312,2.4795865772,2.9802894570,0.9197186174,,,
2.4999999998,312,2.5028680093,2.9956289020,1.2776070878,,,
2.5040000000,313,1.7097893568,2.0407570510,1.1383672892,,,
2.5079999999,313,-0.1276938716,-0.1449243664,0.1815220851,,,
2.5119999999,314,-2.8570468038,-3.3683026909,-1.7262991370,,,
2.5159999998,314,-4.8989605402,-5.9429360970,-3.4730031672,,,
2.5199999998,315,-4.5067727862,-5.9377252369,-3.5151304045,,,
2.5239999997,315,-1.9106701175,-3.3895001051,-1.7712164067,,,
2.5279999999,316,0.9967364502,-0.1436812509,0.3371939931,,,
2.5319999999,316,2.8635269257,2.2896480350,1.6903741152,,,
2.5359999998,317,3.5738554427,3.5638774805,2.2541797006,,,
2.5399999998,317,3.1172310709,3.5228387939,2.1337897442,,,
2.5440000000,318,1.3993694514,2.0188385488,1.1937969262,,,
2.5480000000,318,-0.6937687357,-0.0834329950,-0.0645949078,,,
2.5519999999,319,-1.6269955124,-1.2199299203,-0.5231539211,,,
2.5559999999,319,-1.1312718576,-1.0158733724,0.0411078114,,,
2.5599999998,320,-0.5931164931,-0.7518373908,0.4356977445,,,
2.5639999998,320,-1.0941969708,-1.4973648185,-0.3447368845,,,
2.5680000000,321,-2.2268946591,-2.8984674840,-1.8654090641,,,
2.5719999999,321,-3.3102449258,-4.2886397635,-3.2057784712,,,
2.5759999999,322,-4.4250629677,-5.6960532626,-4.1866804942,,,
2.5799999998,322,-5.4238918599,-6.9110798544,-4.8010280056,,,
2.5839999998,323,-5.2045581521,-6.7683451386,-4.3813763573,,,
2.5879999998,323,-3.1251479618,-4.5107890762,-2.4751440081,,,
2.5919999999,324,-0.2271144575,-1.0615154301,0.0736478637,,,
2.5959999999,324,2.0094432868,2.0570220215,1.9829444640,,,
2.5999999999,325,3.3492070222,4.3568147473,3.0337567872,,,
2.6039999998,325,4.2984274160,6.0509530055,3.7963860141,,,
2.6079999998,326,4.8010055560,6.9317465369,4.3622638434,,,
2.6119999997,326,4.6117126616,6.7618258493,4.4169656324,,,
2.6159999999,327,4.2728305638,6.1940643970,4.2009077046,,,
2.6199999999,327,4.3947420061,6.0259244636,4.2078167156,,,
2.6239999998,328,4.3835034690,5.8601768060,4.0719569094,,,
2.6279999998,328,3.2233014213,4.7487410845,2.9591824983,,,
2.6320000000,329,1.2903955046,2.9479124524,1.1132030031,,,
2.6359999999,329,0.0307367465,1.6978557508,-0.1762767187,,,
2.6399999999,330,-0.0754662284,1.3129522379,-0.3345479895,,,
2.6439999999,330,0.1216797946,0.8612473249,-0.0970074877,,,
2.6479999998,331,0.0626336078,-0.1955090852,-0.1484768759,,,
2.6519999998,331,0.0079215215,-1.4333341729,-0.3739259728,,,
2.6560000000,332,-0.1774156745,-2.6937903074,-0.7792720250,,,
2.6599999999,332,-1.2454150433,-4.4380715792,-1.9013162833,,,
2.6639999999,333,-3.0972983811,-6.4390127275,-3.6747320334,,,
2.6679999998,333,-4.3672654022,-7.3947291044,-4.8890424052,,,
2.6719999998,334,-4.1036636585,-6.5260666829,-4.5505010976,,,
2.6759999997,334,-2.8541276034,-4.5883535397,-3.0828816253,,,
2.6799999999,335,-1.5223492455,-2.6721878927,-1.5005235367,,,
2.6839999999,335,-0.2918454682,-1.0285424677,-0.1876047988,,,
2.6879999998,336,0.5691314418,0.1888138705,0.6870840433,,,
2.6919999998,336,0.0710940277,0.1738064147,0.4210331848,,,
2.6960000000,337,-2.1659007334,-1.3995190821,-1.3716916918,,,
2.7000000000,337,-4.7851839223,-3.2913824249,-3.6527272666,,,
2.7039999999,338,-6.0390984134,-3.9092177784,-4.8326888762,,,
2.7079999999,338,-5.6250567608,-3.0518873173,-4.4635232866,,,
2.7119999998,339,-4.1750269206,-1.4313764620,-3.1003741216,,,
2.7159999998,339,-1.7653299043,0.8036997617,-0.9640399517,,,
2.7200000000,340,1.6718361609,3.7218503500,1.9784741175,,,
2.7239999999,340,5.0490701436,6.3293906095,4.8766969924,,,
2.7279999999,341,6.8307467814,7.2160989474,6.3658097377,,,
2.7319999998,341,6.9198951352,6.4074189585,6.1983298588,,,
2.7359999998,342,6.5047250260,5.2305349275,5.3817820625,,,
2.7399999998,342,6.1426483485,4.3934010002,4.6218465290,,,
2.7439999999,343,5.3690764426,3.5279136054,3.7604725537,,,
2.7479999999,343,4.1274683895,2.5625278553,2.8385185437,,,
2.7519999999,344,3.0510428589,2.0336611406,2.4157409324,,,
2.7559999998,344,2.1149624162,1.8043466387,2.4185651630,,,
2.7599999998,345,0.4488337324,0.8767551107,1.8044077915,,,
2.7639999997,345,-2.0834326088,-1.0569383256,-0.0280518597,,,
2.7679999999,346,-4.3580082100,-3.0429949886,-2.3692791840,,,
2.7719999999,346,-5.5414053403,-4.3342923460,-4.2720787896,,,
2.7759999998,347,-6.0241189603,-5.3102823618,-5.6125186306,,,
2.7799999998,347,-6.2223368149,-6.3034914774,-6.4265843690,,,
2.7840000000,348,-5.6029198455,-6.6063162269,-6.0984597602,,,
2.7879999999,348,-3.7469168472,-5.5276325282,-4.1959888030,,,
2.7919999999,349,-1.4004581795,-3.5492549583,-1.5096108486,,,
2.7959999999,349,0.4818094077,-1.5193386743,0.7057249829,,,
2.7999999998,350,1.8917645852,0.4810047524,2.0527242989,,,
2.8039999998,350,2.9860398264,2.4670470259,2.6877186244,,,
2.8080000000,351,3.0132001700,3.5465232528,2.2942219584,,,
2.8119999999,351,1.2990465566,2.8589450930,0.5374201910,,,
2.8159999999,352,-1.2495072105,1.0461532364,-1.7666721530,,,
2.8199999998,352,-2.9172445716,-0.4377122374,-3.1524828550,,,
2.8239999998,353,-3.1121659224,-1.1292609990,-3.1317083958,,,
2.8279999997,353,-2.3608694149,-1.4803266706,-2.2978633694,,,
2.8319999999,354,-0.8294441192,-1.3654278467,-0.9524285393,,,
2.8359999999,354,1.6994655544,-0.1047919816,1.1610386778,,,
2.8399999999,355,4.5377897566,2.0760737181,3.6919601724,,,
2.8439999998,355,6.2912294427,3.9985238200,5.5041030007,,,
2.8480000000,356,6.5464735328,5.1053306115,6.0119914114,,,
2.8520000000,356,6.1040487240,5.8249709892,5.6700377972,,,
2.8559999999,357,5.3577222409,6.1710005973,4.8113035076,,,
2.8599999999,357,3.7796032196,5.3359052310,3.0930083485,,,
2.8639999998,358,1.3456000013,3.1291495705,0.5822461256,,,
2.8679999998,358,-0.8864883565,0.5965219412,-1.6508820482,,,
2.8720000000,359,-2.2071633799,-1.3588283413,-2.7190162150,,,
2.8759999999,359,-3.0982719641,-2.8884791795,-2.8968042180,,,
2.8799999999,360,-3.9977573697,-4.1538494802,-2.7565482416,,,
2.8839999998,360,-4.3554292562,-4.5277910103,-2.1596370858,,,
2.8879999998,361,-3.7503248389,-3.7031916205,-0.9488939992,,,
2.8919999998,361,-2.9100697438,-2.6206088146,0.1244277578,,,
2.8959999999,362,-2.6272662776,-2.2982610978,0.1990098031,,,
2.8999999999,362,-2.5659304615,-2.5220886691,-0.5185362081,,,
2.9039999999,363,-2.1969407241,-2.6541626114,-1.3423754756,,,
2.9079999998,363,-2.0470880480,-2.9172140907,-2.3238579134,,,
2.9119999998,364,-2.8043889514,-3.7310568534,-3.8104471782,,,
2.9159999997,364,-3.8637867031,-4.4547867577,-5.2234553188,,,
2.9199999999,365,-4.0306149459,-4.0836838234,-5.4698230446,,,
2.9239999999,365,-3.2004276033,-2.7969608055,-4.4211217637,,,
2.9279999998,366,-2.1032360615,-1.5666610327,-2.8838184569,,,
2.9319999998,366,-0.7885338996,-0.5200512445,-1.2070382280,,,
2.9360000000,367,1.2489321700,1.0088393433,0.9062292706,,,
2.9399999999,367,3.6454495828,2.9671639718,3.1979467601,,,
2.9439999999,368,5.3360960258,4.5244290985,4.7416606286,,,
2.9479999999,368,6.1822424310,5.5629213713,5.3073265883,,,
2.9519999998,369,7.0191883330,6.7957069246,5.6735337868,,,
2.9559999998,369,7.9207845224,8.1546522802,6.1957763043,,,
2.9600000000,370,7.8524075033,8.4715411967,6.1969539316,,,
2.9639999999,370,6.3886729492,7.1986493915,5.2539581191,,,
2.9679999999,371,4.3890895089,5.1547086655,3.9683396206,,,
2.9719999998,371,2.4808873195,3.0528024746,2.8360235149,,,
2.9759999998,372,0.2223483016,0.5700220287,1.3869682491,,,
2.9799999997,372,-2.5305784535,-2.4027030330,-0.7585318685,,,
2.9839999999,373,-4.6866400688,-4.7780485879,-2.8600559312,,,
2.9879999999,373,-5.2865153753,-5.5204304256,-3.9987554434,,,
2.9919999999,374,-4.8082738991,-4.9905368324,-4.3329115922,,,
2.9959999998,374,-4.1666335062,-4.1095262877,-4.4689595758,,,
3.0000000000,375,-3.3453039472,-3.0325072344,-4.2428950978,,,
3.0040000000,375,-2.0709777805,-1.6831704585,-3.1969185321,,,
3.0079999999,376,-0.9823894752,-0.8014514319,-1.7623571411,,,
3.0119999999,376,-0.8697927508,-1.1764071139,-0.8344748514,,,
3.0159999998,377,-1.3289915997,-2.2914363832,-0.4760047509,,,
3.0199999998,377,-1.3991425825,-2.9400529293,-0.1195587930,,,
3.0240000000,378,-1.0885006066,-2.8633038263,0.2014064375,,,
3.0279999999,378,-1.0444003145,-2.6153343214,-0.0192889288,,,
3.0319999999,379,-1.1393160755,-2.1863919685,-0.5596856275,,,
3.0359999998,379,-0.7772978151,-1.1510934415,-0.6497281846,,,
3.0399999998,380,-0.3405011010,0.0090010290,-0.3755460377,,,
3.0439999998,380,-0.8381307443,0.2103524930,-0.6638767727,,,
3.0480000000,381,-2.1124904114,-0.5172099529,-1.6851038238,,,
3.0519999999,381,-2.7719050304,-0.9215777363,-2.4280834819,,,
3.0559999999,382,-2.0445264759,-0.2952506487,-2.1421259381,,,
3.0599999998,382,-0.4496351661,0.8641489336,-1.1253076400,,,
3.0639999998,383,1.4798104782,2.1245733188,0.2275698448,,,
3.0679999997,383,3.7382220789,3.6932095041,2.0113617237,,,
3.0719999999,384,5.7591548177,5.2776935095,3.9116612040,,,
3.0759999999,384,6.2629802439,5.7384236197,4.8428546366,,,
3.0799999998,385,4.9677302010,4.6640453447,4.3287262819,,,
3.0839999998,385,3.2644173272,3.1699123765,3.3722661300,,,
3.0880000000,386,2.3835485282,2.3079481726,3.0779921972,,,
3.0919999999,386,1.9485262066,1.7066846210,3.1670702879,,,
3.0959999999,387,1.1188236003,0.6287182604,2.7239416120,,,
3.0999999999,387,0.0686518626,-0.6290177214,1.6829749813,,,
3.1039999998,388,-0.6772825131,-1.4170080890,0.5662390597,,,
3.1079999998,388,-1.4329449018,-1.9635688491,-0.6537659610,,,
3.1120000000,389,-2.6420145652,-2.7398632903,-2.2490649273,,,
3.1159999999,389,-3.6621168265,-3.2516186242,-3.6788821232,,,
3.1199999999,390,-3.5755078625,-2.7578018116,-4.0882243830,,,
3.1239999998,390,-2.7467865683,-1.7350870889,-3.6752647436,,,
3.1279999998,391,-2.2626855135,-1.2977773579,-3.3642492600,,,
3.1319999998,391,-2.2108411229,-1.4919880813,-3.2653360743,,,
3.1359999999,392,-1.8707685283,-1.5057341404,-2.6789331323,,,
3.1399999999,392,-1.2942924000,-1.2929116180,-1.5618814318,,,
3.1439999999,393,-1.2172212406,-1.5310820614,-0.7250226680,,,
3.1479999998,393,-1.4693375297,-2.0258672469,-0.4318949854,,,
3.1519999998,394,-0.9522749103,-1.6460707926,-0.0023833068,,,
3.1559999997,394,0.5954881544,-0.0922581798,0.8798537132,,,
3.1599999999,395,2.1613741034,1.5945712323,1.6052993646,,,
3.1639999999,395,3.0698367959,2.6100265934,1.8183557993,,,
3.1679999998,396,3.6844820299,3.1778807399,2.0553583986,,,
3.1719999998,396,4.1353724733,3.4039078760,2.6434975152,,,
3.1760000000,397,3.7947065051,2.7631255801,3.0189053192,,,
3.1799999999,397,2.6377565031,1.3739464343,2.7990435207,,,
3.1839999999,398,1.7677266837,0.4748383161,2.5291565299,,,
3.1879999998,398,1.7834644753,0.7844102644,2.5990918322,,,
3.1919999998,399,1.7563707703,1.4175905731,2.3132603766,,,
3.1959999998,399,0.6589479233,1.2461894879,0.9186114877,,,
3.2000000000,400,-1.1884804879,0.3783690760,-1.1401673767,,,
3.2039999999,400,-2.9513769144,-0.5916271734,-2.8817478939,,,
3.2079999999,401,-4.5360952213,-1.8045419880,-4.0647793376,,,
3.2119999998,401,-5.9255377623,-3.4330395825,-4.8299082706,,,
3.2159999998,402,-6.1989095060,-4.5749662352,-4.6985943285,,,
3.2199999997,402,-4.5836194891,-4.1979031173,-3.1466806680,,,
3.2239999999,403,-1.9099374123,-2.6879008257,-0.8293916089,,,
3.2279999999,403,0.2392575129,-1.2515671584,0.9314243681,,,
3.2319999998,404,1.3804846427,-0.2340658270,1.7092023555,,,
3.2359999998,404,2.0106979463,0.7759178022,2.0105085863,,,
3.2400000000,405,2.1978180568,1.6189590707,1.9944257847,,,
3.2439999999,405,1.6803900722,1.7325748858,1.3476166983,,,
3.2479999999,406,1.0965209008,1.4842523566,0.4310424109,,,
3.2519999999,406,1.5853373557,1.9243205652,0.2719921181,,,
3.2559999998,407,2.9814926542,3.0412297137,1.0350421107,,,
3.2599999998,407,3.7294010500,3.5350230165,1.5792359428,,,
3.2640000000,408,2.9196979442,2.6487620552,1.0206480991,,,
3.2679999999,408,1.2134229845,1.0386478271,-0.2356054562,,,
3.2719999999,409,-0.5518233665,-0.5458425191,-1.4857599146,,,
3.2759999998,409,-2.3054487371,-2.1492017665,-2.6620939970,,,
3.2799999998,410,-3.7426597704,-3.5754212760,-3.5893640972,,,
3.2839999998,410,-3.7899238910,-3.7804251138,-3.3636538134,,,
3.2879999999,411,-2.0534912787,-2.2566335842,-1.4913871166,,,
3.2919999999,411,0.2315107632,-0.0465659846,1.0537371786,,,
3.2959999999,412,1.6796964379,1.5698609729,2.8848000867,,,
3.2999999998,412,2.2843678429,2.5289897185,3.7190486072,,,
3.3039999998,413,2.5574774753,3.2003007311,3.9436387339,,,
3.3079999997,413,2.2059995476,3.1418903908,3.4161321180,,,
3.3119999999,414,0.8927431641,1.8681543667,1.8875960121,,,
3.3159999999,414,-0.5377134224,0.1127370427,0.0999725670,,,
3.3199999998,415,-0.9628019454,-0.9745595081,-0.8009387498,,,
3.3239999998,415,-0.5767471034,-1.3910502274,-0.7300180032,,,
3.3280000000,416,-0.3298554409,-1.8190090579,-0.4740592805,,,
3.3319999999,416,-0.2714484476,-2.0855613468,-0.2785091053,,,
3.3359999999,417,0.2074629182,-1.4619536584,0.2317450092,,,
3.3399999999,417,0.8438378373,-0.2378218182,0.8304902678,,,
3.3439999998,418,0.6664076989,0.4054009083,0.6342386131,,,
3.3479999998,418,-0.3933995490,0.0927055078,-0.5459210678,,,
3.3520000000,419,-1.4338458003,-0.4572686460,-1.9111439094,,,
3.3559999999,419,-2.1624579912,-0.8991775886,-2.9745493004,,,
3.3599999999,420,-3.1308065013,-1.6358461458,-4.0248142262,,,
3.3639999998,420,-4.2149735216,-2.4831007813,-4.9745141992,,,
3.3679999998,421,-4.3074412398,-2.3716455986,-4.9174727126,,,
3.3719999997,421,-2.9426651476,-0.9088667007,-3.3831457389,,,
3.3759999999,422,-0.9635279411,0.9422855425,-1.0755567117,,,
3.3799999999,422,0.8971509620,2.2849704589,1.1991458331,,,
3.3839999998,423,2.8330795330,3.2273774543,3.4040901521,,,
3.3879999998,423,4.7119769445,3.7531956570,5.3707338387,,,
3.3920000000,424,5.3163663710,2.9389086591,6.0214424155,,,
3.3959999999,424,3.9045131674,0.3824226118,4.5824762057,,,
3.3999999999,425,1.5185333558,-2.5973952050,1.8883084276,,,
3.4039999999,425,-0.3636937669,-4.3591102418,-0.5844790750,,,
3.4079999998,426,-1.5651518951,-4.7351572840,-2.3649318118,,,
3.4119999998,426,-2.5153679025,-4.4001720106,-3.6548448378,,,
3.4160000000,427,-2.7898494252,-3.3579104994,-4.0532305034,,,
3.4199999999,427,-1.7121746787,-1.3360253582,-2.9147757060,,,
3.4239999999,428,0.2168407960,0.9994642286,-0.6521730054,,,
3.4279999998,428,1.8667243319,2.6484420744,1.5541458552,,,
3.4319999998,429,3.0301135070,3.7341277496,3.2073156179,,,
3.4359999998,429,4.1320032628,5.0481322972,4.5471713878,,,
3.4399999999,430,4.8331119920,6.4409255738,5.3652878744,,,
3.4439999999,430,4.3773211618,6.9825800165,5.0573898651,,,
3.4479999999,431,3.0915505940,6.5079698954,3.8765961963,,,
3.4519999998,431,2.0591331303,5.6196662171,2.8445238719,,,
3.4559999998,432,1.3272735547,4.2200680964,2.1781063121,,,
3.4599999997,432,-0.1286811886,1.5211630917,0.9881436449,,,
3.4639999999,433,-2.5297114121,-2.2464057990,-1.1359024678,,,
3.4679999999,433,-4.7856407548,-5.5225030172,-3.3930117066,,,
3.4719999998,434,-6.1368774160,-7.2544056971,-5.0436721435,,,
3.4759999998,434,-6.8883051737,-7.7969617889,-6.2419861885,,,
3.4800000000,435,-7.0643351350,-7.5448795814,-6.9946851137,,,
3.4839999999,435,-5.8188954875,-6.0682690211,-6.4755665442,,,
3.4879999999,436,-2.9819765863,-3.3598152508,-4.2925985527,,,
3.4919999999,436,0.0281360657,-0.6945171017,-1.5439025543,,,
3.4959999998,437,1.7471134601,0.7266043030,0.3409755270,,,
3.4999999998,437,2.1636686742,1.0752412826,1.1210010212,,,
3.5040000000,438,1.8872694572,1.0008550721,1.2603775289,,,
3.5079999999,438,0.9277679520,0.4459514617,0.7613467968,,,
3.5119999999,439,-0.5838105572,-0.6022320697,-0.3814656525,,,
3.5159999998,439,-1.4244306699,-1.1176352936,-1.2042828960,,,
3.5199999998,440,-0.4379749853,-0.1202080297,-0.5683604699,,,
3.5239999997,440,1.8386166138,1.7976843075,1.3117865459,,,
3.5279999999,441,3.9044255871,3.2360049557,3.2139807286,,,
3.5319999999,441,5.1562488018,3.8054475191,4.5182392954,,,
3.5359999998,442,5.8156265504,3.9861953429,5.3595725736,,,
3.5399999998,442,5.5651099153,3.6757429791,5.4487947083,,,
3.5440000000,443,3.8308663188,2.3641768786,4.1400871937,,,
3.5480000000,443,1.2642688436,0.5832795128,1.7924296818,,,
3.5519999999,444,-0.5979336354,-0.3464516875,-0.2251554267,,,
3.5559999999,444,-1.2629083113,-0.1583715043,-1.1863260966,,,
3.5599999998,445,-1.5571551418,0.1030118775,-1.5796534690,,,
3.5639999998,445,-1.9235942102,-0.1576270924,-1.8182384451,,,
3.5680000000,446,-1.8715121182,-0.4047791488,-1.5895765372,,,
3.5719999999,446,-1.3839235422,-0.3482847349,-0.9248942918,,,
3.5759999999,447,-1.3755957762,-0.6027252233,-0.7020036130,,,
3.5799999998,447,-2.1648836073,-1.4239977746,-1.3736535327,,,
3.5839999998,448,-2.8407494542,-2.1017471323,-2.2013256417,,,
3.5879999998,448,-2.8413513749,-2.3152299001,-2.4798756429,,,
3.5919999999,449,-2.8983127196,-2.8820209952,-2.5896651975,,,
3.5959999999,449,-3.5900501272,-4.2757652201,-3.0176850100,,,
3.5999999999,450,-4.0942972985,-5.4197742864,-3.1901145910,,,
3.6039999998,450,-3.3786051963,-4.9708735771,-2.2922951021,,,
3.6079999998,451,-1.7174632806,-3.0214880738,-0.6378900295,,,
3.6119999997,451,0.0070177154,-0.5573280474,0.8114433469,,,
3.6159999999,452,1.6726874451,1.9730967095,1.8118589474,,,
3.6199999999,452,3.4371286117,4.4087156910,2.6678027199,,,
3.6239999998,453,4.6381830987,5.9315565450,3.1202605872,,,
3.6279999998,453,4.5322764042,5.7972324397,2.6346407550,,,
3.6320000000,454,3.6730481452,4.6610896348,1.6124826939,,,
3.6359999999,454,3.1890824980,3.8233756145,1.0598880203,,,
3.6399999999,455,2.9941685526,3.3492697716,1.0499434193,,,
3.6439999999,455,2.0914627778,2.2436968627,0.7081590313,,,
3.6479999998,456,0.4405740238,0.3352963047,-0.2171311324,,,
3.6519999998,456,-0.9152971935,-1.4021163762,-0.9777872395,,,
3.6560000000,457,-1.5302289201,-2.3933171557,-1.1748044161,,,
3.6599999999,457,-1.9692322449,-2.9606138367,-1.3101523423,,,
3.6639999999,458,-2.4497230524,-3.1656100663,-1.6859228800,,,
3.6679999998,458,-2.3611486180,-2.4556456504,-1.7590610702,,,
3.6719999998,459,-1.4174666468,-0.8140547602,-1.0144246713,,,
3.6759999997,459,-0.1138147311,0.8677965244,0.3752593542,,,
3.6799999999,460,1.4310375208,2.1115835039,2.2829637929,,,
3.6839999999,460,3.7971221318,3.4276106679,5.0054291389,,,
3.6879999998,461,6.5738854647,4.8017654870,7.9832071028,,,
3.6919999998,461,7.6312278921,4.8085508784,9.1345345170,,,
3.6960000000,462,5.2484884967,2.2966057305,6.7023281789,,,
3.7000000000,462,0.1090659663,-1.9555629548,1.2405729400,,,
3.7039999999,463,-5.6515368772,-6.1826767583,-5.0454022771,,,
3.7079999999,463,-10.3679678849,-9.3233365665,-10.2251869413,,,
3.7119999998,464,-12.8904661866,-10.7867007625,-13.0370937495,,,
3.7159999998,464,-12.0002304708,-9.6067033319,-12.3775454847,,,
3.7200000000,465,-7.5154645700,-5.4370424004,-8.0983470092,,,
3.7239999999,465,-1.3698893950,0.1835537223,-2.0064558845,,,
3.7279999999,466,3.9657332692,5.0704468403,3.4033763568,,,
3.7319999998,466,7.6480290812,8.4170443504,7.0255618632,,,
3.7359999998,467,9.9027272313,10.3668392127,8.9463500829,,,
3.7399999998,467,10.3222308297,10.4522694796,8.9383989077,,,
3.7439999999,468,8.2999772563,8.0443226367,6.6144748560,,,
3.7479999999,468,4.5374290563,3.8557933926,2.7214494243,,,
3.7519999999,469,0.5818341013,-0.4974563648,-1.1314442942,,,
3.7559999998,469,-2.8601991841,-4.2085549960,-4.0566577337,,,
3.7599999998,470,-5.8172968066,-7.2438515205,-6.0957241536,,,
3.7639999997,470,-7.6274352936,-8.9407093783,-6.9884882533,,,
3.7679999999,471,-7.1737422576,-8.2006806068,-6.0327070691,,,
3.7719999999,471,-4.5770561291,-5.1551414779,-3.3458343445,,,
3.7759999998,472,-1.4346050776,-1.4487296220,-0.2682543873,,,
3.7799999998,472,0.8301908261,1.3788396094,1.8689539256,,,
3.7840000000,473,1.9592995444,2.9567931374,2.7623272177,,,
3.7879999999,473,2.0703396588,3.3775202462,2.6411671102,,,
3.7919999999,474,1.0936614534,2.5897791834,1.6289812695,,,
3.7959999999,474,-0.3637521595,1.1609248991,0.2846747269,,,
3.7999999998,475,-0.7967888870,0.5157908282,-0.1027211387,,,
3.8039999998,475,0.4973957071,1.3600520930,1.1614114027,,,
3.8080000000,476,2.3559607585,2.6627333528,3.0820390904,,,
3.8119999999,476,3.3400098146,3.1492069878,4.1575425175,,,
3.8159999999,477,3.4816928109,2.9544516044,4.1160620234,,,
3.8199999998,477,3.4405095165,2.7884325288,3.5246374500,,,
3.8239999998,478,2.9270951449,2.3684772615,2.3613241096,,,
3.8279999997,478,1.3511969233,1.0013338105,0.2975658540,,,
3.8319999999,479,-0.5714504280,-0.8230689528,-1.9193032469,,,
3.8359999999,479,-1.3482343799,-1.8130753364,-2.7780002728,,,
3.8399999999,480,-0.6908775420,-1.6714303211,-1.8612002031,,,
3.8439999998,480,0.3227381690,-1.2296582239,-0.2907618329,,,
3.8480000000,481,0.9153400046,-0.9245708544,0.7889956537,,,
3.8520000000,481,1.0551428803,-0.5448968841,1.0244279196,,,
3.8559999999,482,0.3594049742,-0.4750664416,0.0983195137,,,
3.8599999999,482,-1.7692688226,-1.5961689537,-2.3347439792,,,
3.8639999998,483,-4.5598245164,-3.5654722898,-5.3906109812,,,
3.8679999998,483,-5.9731011093,-4.6509005446,-6.9660581261,,,
3.8720000000,484,-5.0445984034,-3.8905724148,-5.8982886072,,,
3.8759999999,484,-2.8912419080,-2.1566626115,-3.1870330451,,,
3.8799999999,485,-0.9144652840,-0.5520862264,-0.4601654938,,,
3.8839999998,485,0.5625431110,0.8119824550,1.6210755413,,,
3.8879999998,486,1.3455448552,1.8042100308,2.7933166000,,,
3.8919999998,486,0.7297648918,1.5963022941,2.4474597213,,,
3.8959999999,487,-1.2278589246,-0.0236964314,0.5601683858,,,
3.8999999999,487,-3.0005819905,-1.7694908856,-1.5112635529,,,
3.9039999999,488,-3.1019504863,-2.1892310271,-2.1722126499,,,
3.9079999998,488,-1.5560651287,-1.1433940423,-1.1026632167,,,
3.9119999998,489,0.7567404173,0.6861089666,0.9751512932,,,
3.9159999997,489,3.3004908628,2.8864217556,3.3911816848,,,
3.9199999999,490,5.5622669051,5.0071139914,5.5322191021,,,
3.9239999999,490,6.4533862886,5.9684555147,6.3753337268,,,
3.9279999998,491,5.3650053093,5.0531040238,5.2842679667,,,
3.9319999998,491,3.3870459800,3.1227966819,3.1443834585,,,
3.9360000000,492,2.2266219558,1.6916542013,1.6064820145,,,
3.9399999999,492,2.1870990193,1.0667675283,1.2088405163,,,
3.9439999999,493,2.3237536690,0.4986011684,1.1839334774,,,
3.9479999999,493,2.1393790926,-0.2297125491,0.9185269645,,,
3.9519999998,494,1.7291250288,-0.7446042474,0.3790719658,,,
3.9559999998,494,0.6095316027,-1.3412671176,-0.7959657256,,,
3.9600000000,495,-1.8758673199,-2.6953203646,-3.1089337669,,,
3.9639999999,495,-4.9296484830,-4.2887052650,-5.8508639997,,,
3.9679999999,496,-6.6744336919,-4.6710221269,-7.2998311217,,,
3.9719999998,496,-6.4220152897,-3.5255590394,-6.7033183966,,,
3.9759999998,497,-5.2716123597,-2.1478387088,-5.0301015259,,,
3.9799999997,497,-4.2526169707,-1.5845507175,-3.4323693239,,,
3.9839999999,498,-3.1565606898,-1.4732079448,-1.9647408228,,,
3.9879999999,498,-1.5619545855,-1.0682809829,-0.2641359152,,,
3.9919999999,499,0.2382570391,-0.2723168780,1.4797977570,,,
3.9959999998,499,1.9698650090,0.8967703047,2.9566950189,,,
4.0000000000,500,3.8934381089,2.7216414682,4.3271646581,,,
4.0040000000,500,5.7286236426,4.7959004581,5.5090806679,,,
4.0079999999,501,6.1206864771,5.5964873008,5.5771183621,,,
4.0119999999,501,4.2486948400,4.1089786911,3.8687171615,,,
4.0159999998,502,1.1560052027,1.2011032972,1.1740198298,,,
4.0199999998,502,-1.5280517480,-1.5368027117,-1.1165933894,,,
4.0240000000,503,-3.3924142923,-3.5648815188,-2.5684959754,,,
4.0279999999,503,-4.6914266638,-4.9866418168,-3.4314292529,,,
4.0319999999,504,-4.8992471347,-5.2541808813,-3.3833595207,,,
4.0359999998,504,-3.3380295417,-3.7685301277,-1.8857935109,,,
4.0399999998,505,-0.7629215953,-1.3299526415,0.4194448441,,,
4.0439999998,505,1.1864270341,0.4705234001,2.0122322127,,,
4.0480000000,506,1.9443529558,1.1661274746,2.2717015272,,,
4.0519999999,506,2.1199659312,1.4482260182,1.8012409953,,,
4.0559999999,507,1.8808550273,1.4971781284,0.9613159161,,,
4.0599999998,507,0.8340026262,0.8380411607,-0.5360836329,,,
4.0639999998,508,-0.3941381185,-0.0317194158,-2.2535070506,,,
4.0679999997,508,-0.1973301715,0.4323821896,-2.7143485616,,,
4.0719999999,509,1.7916250425,2.6515593142,-1.2366596842,,,
4.0759999999,509,3.9003981020,5.0198879350,0.9978527981,,,
4.0799999998,510,4.4166501960,5.7824310306,2.3986675151,,,
4.0839999998,510,3.1654391317,4.6339188152,2.5067506353,,,
4.0880000000,511,0.7146504599,2.0418679368,1.5395248701,,,
4.0919999999,511,-2.4531676276,-1.5061953447,-0.3625461199,,,
4.0959999999,512,-5.2395669080,-4.8077057840,-2.5433947561,,,
4.0999999999,512,-5.9177556861,-5.9709748463,-3.5714277914,,,
4.1039999998,513,-3.9874895081,-4.3203177184,-2.6810826232,,,
4.1079999998,513,-1.0689841682,-1.3777241418,-0.8066355998,,,
4.1120000000,514,0.9586394786,0.9144291489,0.6539231432,,,
4.1159999999,514,1.7999783882,2.0545007155,1.4092663765,,,
4.1199999999,515,1.9909641811,2.3476224157,1.8270306296,,,
4.1239999998,515,1.4906668371,1.6017692360,1.7541982293,,,
4.1279999998,516,0.2293129778,-0.2875892690,0.9332862526,,,
4.1319999998,516,-0.8165448353,-2.2422493351,0.0748637978,,,
4.1359999999,517,-0.5441380703,-2.9092464333,0.2325572002,,,
4.1399999999,517,0.6830384642,-2.3291553513,1.2561297553,,,
4.1439999999,518,1.6171689528,-1.5193636742,2.0038714358,,,
4.1479999998,518,1.9380120164,-0.7635913539,2.0024396471,,,
4.1519999998,519,2.1972237404,0.3874795280,1.7460072555,,,
4.1559999997,519,2.2856419289,1.6706972048,1.3993605282,,,
4.1599999999,520,1.4705684411,2.1443498338,0.4925262117,,,
4.1639999999,520,-0.0362716407,1.7614235647,-0.8871645868,,,
4.1679999998,521,-1.0389104026,1.5273384282,-1.8338048671,,,
4.1719999998,521,-1.1482899589,1.7977925513,-1.9920226346,,,
4.1760000000,522,-1.2558704370,1.7316092688,-2.1075500995,,,
4.1799999999,522,-1.8743783758,0.8573317777,-2.6911987697,,,
4.1839999999,523,-2.3509690082,-0.1070042132,-3.1584574831,,,
4.1879999998,523,-2.1778647504,-0.5238023749,-2.8805561695,,,
4.1919999998,524,-1.7168373450,-0.6363025429,-2.0618892927,,,
4.1959999998,524,-1.0415962821,-0.5011370378,-0.9210199992,,,
4.2000000000,525,0.5139569478,0.4895406581,0.8951097368,,,
4.2039999999,525,2.8214849771,2.1712014263,3.2208005257,,,
4.2079999999,526,4.2418234517,2.9349242085,4.6713237370,,,
4.2119999998,526,3.4379706617,1.5092105236,4.0421565335,,,
4.2159999998,527,0.9975695037,-1.4372101745,1.8056371279,,,
4.2199999997,527,-1.5918574196,-4.3032325948,-0.6226624332,,,
4.2239999999,528,-3.6319774074,-6.2774946510,-2.4997373572,,,
4.2279999999,528,-4.8800406371,-7.1018326485,-3.6963701995,,,
4.2319999998,529,-4.5703178281,-6.1270474988,-3.7062074002,,,
4.2359999998,529,-2.2925803238,-3.0979518982,-2.0964482547,,,
4.2400000000,530,0.6632613254,0.5959089637,0.2696988812,,,
4.2439999999,530,2.3014302721,2.8989648402,1.7684472192,,,
4.2479999999,531,2.1073798097,3.2385759437,1.8454512451,,,
4.2519999999,531,1.1155387990,2.6152289942,1.2866297068,,,
4.2559999998,532,0.0883603299,1.7956398058,0.6984440782,,,
4.2599999998,532,-1.0253156101,0.7282306792,-0.0967332977,,,
4.2640000000,533,-1.8849298863,-0.2748504251,-0.9676293722,,,
4.2679999999,533,-1.5794829236,-0.2935859251,-1.0676256016,,,
4.2719999999,534,-0.0690269227,0.8290912472,-0.0677089459,,,
4.2759999998,534,1.5265690196,2.1336369256,1.2654926599,,,
4.2799999998,535,2.5258805295,2.9948275123,2.2454241541,,,
4.2839999998,535,3.3457766427,3.7480209805,3.0202226064,,,
4.2879999999,536,4.1611200224,4.4549618458,3.6458732965,,,
4.2919999999,536,4.1952711536,4.2805137397,3.4344095290,,,
4.2959999999,537,2.9939278674,2.7755945785,1.9673905429,,,
4.2999999998,537,1.2710205637,0.7380087977,-0.0652085628,,,
4.3039999998,538,-0.2568078454,-0.9589401762,-1.8121852309,,,
4.3079999997,538,-1.7812331652,-2.3989384495,-3.2666227024,,,
4.3119999999,539,-3.3182197089,-3.6674130440,-4.5129586133,,,
4.3159999999,539,-3.8552382572,-3.9472246747,-4.8106052128,,,
4.3199999998,540,-2.6961769950,-2.6922529490,-3.5176725562,,,
4.3239999998,540,-0.7770565896,-0.8686361405,-1.3559007178,,,
4.3280000000,541,0.5092935877,0.1657539987,0.3532824062,,,
4.3319999999,541,1.0526112050,0.3626792094,1.2852835766,,,
4.3359999999,542,1.4459515205,0.4251994748,1.8901219674,,,
4.3399999999,542,1.4570889946,0.2552566850,2.0650913138,,,
4.3439999998,543,0.4736164619,-0.6957025402,1.3210569854,,,
4.3479999998,543,-1.0350771651,-1.9967821509,0.0489451292,,,
4.3520000000,544,-1.9406516539,-2.5708978309,-0.6727787969,,,
4.3559999999,544,-2.0932536187,-2.2732843171,-0.5781914297,,,
4.3599999999,545,-2.1974238522,-1.8381781251,-0.3758631211,,,
4.3639999998,545,-2.2635782120,-1.4043405308,-0.3712559150,,,
4.3679999998,546,-1.6076628063,-0.4648753761,-0.1238852945,,,
4.3719999997,546,-0.3624967110,0.7387836798,0.3791632979,,,
4.3759999999,547,0.4482245466,1.2023704470,0.4444623540,,,
4.3799999999,547,0.5320683494,0.7702071926,-0.0780484173,,,
4.3839999998,548,0.6877869152,0.4718149232,-0.3759973247,,,
4.3879999998,548,1.2399980314,0.8827155146,0.0167135111,,,
4.3920000000,549,1.4321882491,1.3455752381,0.4900377546,,,
4.3959999999,549,0.9057319428,1.3235654646,0.5325108905,,,
4.3999999999,550,0.5267556128,1.3326139189,0.6722336359,,,
4.4039999999,550,0.9527994503,1.7629790371,1.4207590877,,,
4.4079999998,551,1.4604345389,1.8656475123,2.1066773893,,,
4.4119999998,551,1.0889099167,0.8777720592,1.7244080178,,,
4.4160000000,552,-0.0027286172,-0.7275555881,0.3199115975,,,
4.4199999999,552,-1.2013178180,-2.0475220275,-1.3495328234,,,
4.4239999999,553,-2.4723073110,-2.9462612207,-2.8891923053,,,
4.4279999998,553,-3.6337883869,-3.4250045590,-3.9915669021,,,
4.4319999998,554,-3.4907222589,-2.6551953515,-3.7009726971,,,
4.4359999998,554,-1.1254481908,-0.0280115067,-1.3132462928,,,
4.4399999999,555,2.4170341375,3.3160094439,2.1654519620,,,
4.4439999999,555,5.0346558461,5.3809051641,4.6677552528,,,
4.4479999999,556,5.7752912114,5.4647352974,5.1083470981,,,
4.4519999998,556,5.0201651000,4.2794552856,3.8331984775,,,
4.4559999998,557,3.1013446149,2.4024444162,1.4117481026,,,
4.4599999997,557,0.2532495601,0.0166801289,-1.6897658407,,,
4.4639999999,558,-2.3671997527,-2.0862514322,-4.3289949565,,,
4.4679999999,558,-3.2986157836,-2.8663529952,-5.0900489552,,,
4.4719999998,559,-2.6361780528,-2.5832915460,-3.9197639411,,,
4.4759999998,559,-1.9413105586,-2.6158351292,-2.2772803209,,,
4.4800000000,560,-2.0428085996,-3.4276133864,-1.2296863084,,,
4.4839999999,560,-2.1962585618,-3.9359613977,-0.3976237158,,,
4.4879999999,561,-1.7209192992,-3.2696070452,0.7975880218,,,
4.4919999999,561,-1.0367452861,-1.8892199301,2.0058924452,,,
4.4959999998,562,-0.4944707532,-0.4434054692,2.7641963776,,,
4.4999999998,562,0.4003476978,1.1554157134,3.3533837484,,,
4.5040000000,563,1.7668175128,2.7585358293,3.9653237651,,,
4.5079999999,563,2.5797350662,3.3352423379,3.9078935735,,,
4.5119999999,564,2.0302541488,2.2832912072,2.5604135280,,,
4.5159999998,564,0.6885482628,0.4875225525,0.4601632652,,,
4.5199999998,565,-0.5055135256,-0.8017179026,-1.3951036809,,,
4.5239999997,565,-1.4754766699,-1.3505024836,-2.7400800790,,,
4.5279999999,566,-2.2936739640,-1.3503693647,-3.6556243355,,,
4.5319999999,566,-2.1288305713,-0.3235279791,-3.5655151388,,,
4.5359999998,567,-0.2167452535,2.1153746915,-1.8357981859,,,
4.5399999998,567,2.5949977800,4.8940659478,0.8269777742,,,
4.5440000000,568,4.5328861864,6.2112478091,2.7620819213,,,
4.5480000000,568,4.8369508253,5.4707671607,3.1335393855,,,
4.5519999999,569,3.9332952703,3.4228598664,2.3437204496,,,
4.5559999999,569,2.1301766405,0.7254223496,0.8508844427,,,
4.5599999998,570,-0.4832497953,-2.3424961489,-1.2078021373,,,
4.5639999998,570,-3.0279402058,-4.9488993589,-3.1736897553,,,
4.5680000000,571,-4.2092044977,-5.9858278695,-3.9503651945,,,
4.5719999999,571,-3.9410673110,-5.5233669465,-3.3686737776,,,
4.5759999999,572,-3.4041359115,-4.7907368385,-2.4740307802,,,
4.5799999998,572,-3.1990343660,-4.3714529158,-1.9760175424,,,
4.5839999998,573,-2.6156824479,-3.5228811035,-1.3403419623,,,
4.5879999998,573,-1.1582559068,-1.7251948305,0.0088464563,,,
4.5919999999,574,0.4340318448,0.2610302924,1.5476936432,,,
4.5959999999,574,1.3454788053,1.5383031445,2.4728249802,,,
4.5999999999,575,1.7218927140,2.1769203220,2.7918987069,,,
4.6039999998,575,1.7990676810,2.4273418995,2.7556712221,,,
4.6079999998,576,1.1510846878,1.9519158218,2.0585260305,,,
4.6119999997,576,-0.2205633748,0.8203884814,0.6348466978,,,
4.6159999999,577,-1.1155984591,0.2184832941,-0.4948997993,,,
4.6199999999,577,-0.6069015259,0.9662441724,-0.3479559572,,,
4.6239999998,578,0.5344627105,2.1180788323,0.5529193573,,,
4.6279999998,578,1.0153213253,2.2189464655,0.9479919151,,,
4.6320000000,579,0.9418574581,1.3552817238,0.7002062710,,,
4.6359999999,579,1.3181838204,0.7404432970,0.6996624826,,,
4.6399999999,580,2.1672754634,0.7635003153,1.1638060589,,,
4.6439999999,580,2.5918634446,0.8449450133,1.3647005036,,,
4.6479999998,581,2.3395287181,0.8439804227,0.9692405332,,,
4.6519999998,581,1.8677853202,1.1131375898,0.3727462639,,,
4.6560000000,582,1.1378168609,1.3651070155,-0.2958766407,,,
4.6599999999,582,-0.2580323860,0.8859551230,-1.3202596066,,,
4.6639999999,583,-1.9148383008,-0.1898079667,-2.4759434730,,,
4.6679999998,583,-2.8694999620,-1.0376799779,-3.0576438451,,,
4.6719999998,584,-3.0107716754,-1.5149789204,-2.9860702542,,,
4.6759999997,584,-3.0305753763,-2.1744441642,-2.8788184932,,,
4.6799999999,585,-2.9351372233,-2.8551353825,-2.7923014913,,,
4.6839999999,585,-1.8706483930,-2.5151183176,-1.9146114442,,,
4.6879999998,586,0.2375603841,-0.8826382357,0.0133510779,,,
4.6919999998,586,2.0766643702,0.8400359429,1.9076696517,,,
4.6960000000,587,2.5778948675,1.5354990088,2.6636045359,,,
4.7000000000,587,2.1276185486,1.4383709885,2.4783591422,,,
4.7039999999,588,1.5546890673,1.2301414121,2.1566775427,,,
4.7079999999,588,0.9139777696,0.8522555614,1.8367321579,,,
4.7119999998,589,-0.0132973223,-0.0162856480,1.2015855452,,,
4.7159999998,589,-0.8803038593,-1.0655249507,0.3935284071,,,
4.7200000000,590,-1.3429853790,-1.8232607704,-0.2081353849,,,
4.7239999999,590,-1.7965293506,-2.4386875546,-0.7488154073,,,
4.7279999999,591,-2.5538154163,-3.0670686187,-1.4670878258,,,
4.7319999998,591,-2.9305848514,-3.0873075655,-1.8664982487,,,
4.7359999998,592,-2.2488518242,-2.0313339701,-1.3925483025,,,
4.7399999998,592,-1.0984402914,-0.6786389121,-0.5568520345,,,
4.7439999999,593,-0.3633079455,0.0216444590,-0.1942498758,,,
4.7479999999,593,0.3611395300,0.5395842580,0.0297287886,,,
4.7519999999,594,1.9736952165,1.9285477793,1.0670815435,,,
4.7559999998,594,4.0232883588,3.9074976007,2.7256005447,,,
4.7599999998,595,5.1538203397,5.1876402511,3.7889705435,,,
4.7639999997,595,5.0821586753,5.3793735235,3.7835421522,,,
4.7679999999,596,4.6636525371,5.1498417481,3.3303587445,,,
4.7719999999,596,4.0996413720,4.6013875869,2.6697069372,,,
4.7759999998,597,2.6218275748,3.0106079287,1.2032946160,,,
4.7799999998,597,0.2035070469,0.4586926302,-1.0619582806,,,
4.7840000000,598,-1.8895210093,-1.7009820220,-2.8835962878,,,
4.7879999999,598,-2.7779429422,-2.5701718573,-3.3061127269,,,
4.7919999999,599,-2.9057854939,-2.6881692090,-2.7870636823,,,
4.7959999999,599,-2.8069486802,-2.7605715722,-2.1610667453,,,
4.7999999998,600,-2.2862594543,-2.6673100253,-1.5293883163,,,
4.8039999998,600,-1.4651388510,-2.3771026611,-0.9034880305,,,
4.8080000000,601,-1.3809248329,-2.6468120110,-0.9647207357,,,
4.8119999999,601,-2.6451524953,-3.9045571438,-2.1965838442,,,
4.8159999999,602,-4.4236723244,-5.3168001681,-3.8881550858,,,
4.8199999998,602,-5.6185295723,-5.8946703483,-4.9607059618,,,
4.8239999998,603,-6.1554449572,-5.7360984257,-5.2419145756,,,
4.8279999997,603,-6.1473908359,-5.2013207822,-4.9540562343,,,
4.8319999999,604,-4.7729053582,-3.7039819171,-3.5706063186,,,
4.8359999999,604,-1.3166630222,-0.5743101091,-0.4469987155,,,
4.8399999999,605,3.2377712387,3.4035723712,3.6922608670,,,
4.8439999998,605,6.8683991028,6.5172195413,7.0459554790,,,
4.8480000000,606,8.4250358883,7.8789698914,8.4453605347,,,
4.8520000000,606,7.9605259297,7.6750777944,7.9251437379,,,
4.8559999999,607,5.8028780386,6.1719939944,5.9221550922,,,
4.8599999999,607,2.6618192786,3.7924026108,3.1009296290,,,
4.8639999998,608,0.2470902986,1.8473405221,0.8261823932,,,
4.8679999998,608,0.0883799550,1.5970697168,0.3531991963,,,
4.8720000000,609,1.5896101387,2.4838724056,1.2406459711,,,
4.8759999999,609,2.5721885062,2.6273399795,1.6806839758,,,
4.8799999999,610,1.8782020727,1.2177258241,0.6883359863,,,
4.8839999998,610,0.2907806367,-0.7299794862,-0.9671114354,,,
4.8879999998,611,-1.1270132247,-2.0890311301,-2.1850671834,,,
4.8919999998,611,-2.1784532317,-2.7786150707,-2.7644576907,,,
4.8959999999,612,-2.6943466672,-2.8949554703,-2.7914479888,,,
4.8999999999,612,-2.1244061081,-2.1624846101,-2.0517665511,,,
4.9039999999,613,-0.7551215392,-0.9741720905,-0.8633738289,,,
4.9079999998,613,-0.0443639426,-0.6838100692,-0.4589025896,,,
4.9119999998,614,-0.8455035008,-1.9308024008,-1.5786165188,,,
4.9159999997,614,-2.2022480952,-3.5307320652,-3.2990677011,,,
4.9199999999,615,-2.6423040314,-3.8204734353,-4.0346477630,,,
4.9239999999,615,-1.8695314432,-2.4396420148,-3.2205377492,,,
4.9279999998,616,-0.4203190875,-0.0805302495,-1.3009949421,,,
4.9319999998,616,1.4342682845,2.6616622590,1.2674515529,,,
4.9360000000,617,3.2474569856,5.0482595927,3.8413668035,,,
4.9399999999,617,3.6616749235,5.6155072265,4.9787722791,,,
4.9439999999,618,1.6648592164,3.3990588696,3.5049026588,,,
4.9479999999,618,-1.7880948617,-0.5634157809,0.1184298286,,,
4.9519999998,619,-4.6302194185,-4.1140853578,-3.1247788199,,,
4.9559999998,619,-5.7673602496,-6.0138660677,-4.7732086358,,,
4.9600000000,620,-5.3177344362,-6.2154402255,-4.6090596888,,,
4.9639999999,620,-3.3834900457,-4.7395246587,-2.7427893942,,,
4.9679999999,621,-0.0239813493,-1.6741447074,0.6151311451,,,
4.9719999998,621,3.6575042841,1.8247204368,4.3422426260,,,
4.9759999998,622,5.8911025166,3.9896698725,6.6415491979,,,
4.9799999997,622,6.0076976003,4.2158870974,6.6311034461,,,
4.9839999999,623,4.6997528623,3.2977437069,4.8701427719,,,
4.9879999999,623,2.5087643080,1.8517866448,2.1436069650,,,
4.9919999999,624,-0.5241440691,-0.1555561446,-1.1486852019,,,
4.9959999998,624,-3.5016375464,-2.1020882559,-4.0854396369,,,
5.0000000000,625,-4.5884074413,-2.4883560881,-5.0695311905,,,
5.0040000000,625,-3.0676452038,-0.7798550551,-3.4916181988,32775:33282,5.0047137847:5.0048113153,0.0000000000:0.0000000000
5.0079999999,626,-0.3365874718,1.6789124710,-0.7017589847,,,
5.0119999999,626,1.8614008399,3.3620912257,1.4898478289,,,
5.0159999998,627,3.0859551657,4.1147298861,2.5011956903,,,
5.0199999998,627,3.4018603657,4.2438238131,2.4681047477,,,
5.0240000000,628,2.4233481505,3.3974496859,1.2313283138,,,
5.0279999999,628,0.3881041823,1.5589441146,-0.9487319936,,,
5.0319999999,629,-1.1031833601,-0.0351779781,-2.6431049006,,,
5.0359999998,629,-0.8855090201,-0.3818395517,-2.6350592747,,,
5.0399999998,630,0.0946591726,-0.2759276377,-1.5313897841,,,
5.0439999998,630,0.1283542676,-1.1316522680,-0.8824421514,,,
5.0480000000,631,-1.0198412136,-2.9366056033,-1.1661357524,,,
5.0519999999,631,-2.4134238462,-4.6045134620,-1.7170403538,,,
5.0559999999,632,-3.6274130622,-5.6833293599,-2.1333189095,,,
5.0599999998,632,-4.5893417974,-6.2430285855,-2.3781760179,,,
5.0639999998,633,-4.3539453091,-5.5855674058,-1.7692805593,,,
5.0679999997,633,-1.8433969152,-2.8026485634,0.5801820027,,,
5.0719999999,634,2.1960329016,1.3508168836,4.0840112895,,,
5.0759999999,634,5.3897544797,4.5543502235,6.6350758984,,,
5.0799999998,635,6.0632820726,5.1710301675,6.6340886312,,,
5.0839999998,635,4.3437168449,3.4041468558,4.2539839400,,,
5.0880000000,636,1.0619713418,0.2295739595,0.5561022412,,,
5.0919999999,636,-2.9670467656,-3.4368574187,-3.4928879151,,,
5.0959999999,637,-6.2638964786,-6.1739524903,-6.6600241677,,,
5.0999999999,637,-6.8603183611,-6.1758755008,-7.3637277789,,,
5.1039999998,638,-4.1614621506,-2.9533093852,-5.0530789244,,,
5.1079999998,638,0.1824675685,1.8531993833,-1.1236857588,,,
5.1120000000,639,3.9562348109,6.0624608530,2.3535398422,,,
5.1159999999,639,6.1340383141,8.6206625831,4.3404485793,,,
5.1199999999,640,6.4693041246,9.1985135010,4.6951371678,,,
5.1239999998,640,4.6975323499,7.4342665090,3.3229628321,,,
5.1279999998,641,1.3418568947,3.7611371155,0.6510105315,,,
5.1319999998,641,-1.7057849720,0.0332935868,-1.7398524775,,,
5.1359999999,642,-2.7356259482,-1.9433808080,-2.2413404944,,,
5.1399999999,642,-1.8396500962,-2.0320608561,-0.7615156543,,,
5.1439999999,643,-0.1981179516,-1.1995787022,1.5703142872,,,
5.1479999998,643,1.4467975061,-0.1204335606,3.7278196286,,,
5.1519999998,644,2.6750707422,0.7387768303,5.0141085484,,,
5.1559999997,644,2.6411015062,0.4699751248,4.6036089088,,,
5.1599999999,645,0.8684628924,-1.4417777087,2.1541568710,,,
5.1639999999,645,-1.5518082644,-3.9110752475,-1.1819984916,,,
5.1679999998,646,-2.8815883876,-5.1561734954,-3.4899449924,,,
5.1719999998,646,-2.7718798150,-4.7602701515,-4.0249134947,,,
5.1760000000,647,-2.2502076416,-3.7282648509,-3.5484328529,,,
5.1799999999,647,-1.8672026841,-2.6514635696,-2.7631077190,,,
5.1839999999,648,-1.2446674552,-1.2021170901,-1.6123081756,,,
5.1879999998,648,-0.5188409657,0.4268729685,-0.3719500005,,,
5.1919999998,649,-0.6788609934,1.0993975287,-0.0804665763,,,
5.1959999998,649,-1.9461827828,0.3543358562,-1.1464629592,,,
5.2000000000,650,-3.1214656013,-0.7699745700,-2.5285063201,,,
5.2039999999,650,-3.1967545185,-1.1996701831,-3.0541157630,,,
5.2079999999,651,-2.4565648480,-0.9928916389,-2.6825285410,,,
5.2119999998,651,-1.3460410296,-0.3968977398,-1.7780692735,,,
5.2159999998,652,0.4302560078,0.9464914906,-0.1954794070,,,
5.2199999997,652,2.7755897371,2.9002177001,1.9397050088,,,
5.2239999999,653,4.4477376206,4.1549788934,3.5085111658,,,
5.2279999999,653,4.5920774827,3.8172186742,3.6249995733,,,
5.2319999998,654,4.0347725196,2.7555825737,2.9177375869,,,
5.2359999998,654,3.9551572601,2.3024871530,2.5648894143,,,
5.2400000000,655,4.1443184258,2.4401177653,2.6475611430,,,
5.2439999999,655,3.7035669752,2.3551516965,2.4760738165,,,
5.2479999999,656,2.7184979505,2.0470150169,2.0346438714,,,
5.2519999999,656,1.9207602462,2.0444355385,1.8689830348,,,
5.2559999998,657,1.1544247361,1.9405401013,1.7388457271,,,
5.2599999998,657,-0.3949551223,0.6853361647,0.7013466633,,,
5.2640000000,658,-2.6290926107,-1.7120456831,-1.3527218999,,,
5.2679999999,658,-4.5557443943,-4.0971489361,-3.4268959658,,,
5.2719999999,659,-5.7168381225,-5.7054550818,-4.7588443931,,,
5.2759999998,659,-6.1910239646,-6.4217299563,-5.2100441292,,,
5.2799999998,660,-5.4029188196,-5.7177075387,-4.3533886506,,,
5.2839999998,660,-2.6162218514,-3.0237399821,-1.6753498651,,,
5.2879999999,661,1.2437078533,0.6422844688,1.9725374621,,,
5.2919999999,661,3.7943743872,2.9350465149,4.4158327219,,,
5.2959999999,662,3.6615413839,2.5919108785,4.2572472191,,,
5.2999999998,662,1.5946459136,0.5138366127,2.0821761425,,,
5.3039999998,663,-1.0855344693,-1.8207250499,-0.7554799215,,,
5.3079999997,663,-3.7223225133,-3.7036318736,-3.4294691702,,,
5.3119999999,664,-5.5542386638,-4.5374027104,-5.2135873381,,,
5.3159999999,664,-5.3375657992,-3.4051501343,-5.0899247349,,,
5.3199999998,665,-2.8054221500,-0.3372890319,-2.8672338988,,,
5.3239999998,665,0.5876546635,3.0750571884,0.1267048325,,,
5.3280000000,666,3.2917959443,5.2952522009,2.3945899173,,,
5.3319999999,666,5.1092290062,6.2652642258,3.6941268663,,,
5.3359999999,667,6.2476861207,6.4668012167,4.3791407294,,,
5.3399999999,667,6.0187090192,5.5229795313,4.0860016875,,,
5.3439999998,668,3.8423035820,3.0121053393,2.3284990835,,,
5.3479999998,668,0.8740585283,0.0263006178,-0.0092491023,,,
5.3520000000,669,-0.9865052614,-1.7029076288,-1.2863175614,,,
5.3559999999,669,-1.3560122546,-1.9365500214,-1.1088831973,,,
5.3599999999,670,-1.1976469496,-1.7408310467,-0.3968221493,,,
5.3639999998,670,-0.9281574028,-1.6097237214,0.2901246201,,,
5.3679999998,671,-0.2757408875,-1.2688123405,1.1059237019,,,
5.3719999997,671,0.3453324973,-1.0009931113,1.7467789156,,,
5.3759999999,672,-0.0122227285,-1.5744450531,1.3698326807,,,
5.3799999999,672,-1.2117773384,-2.7517743260,-0.0264395993,,,
5.3839999998,673,-1.9443980963,-3.2090588128,-1.2751573661,,,
5.3879999998,673,-1.4992119364,-2.2386821008,-1.5084524910,,,
5.3920000000,674,-0.4692063767,-0.4636508503,-1.0453557081,,,
5.3959999999,674,0.5024971867,1.3506438166,-0.4811902101,,,
5.3999999999,675,1.3877362345,2.9809987561,0.0735041835,,,
5.4039999999,675,1.8326665527,3.9147115487,0.3578653514,,,
5.4079999998,676,1.0515945340,3.3022538906,-0.2525761218,,,
5.4119999998,676,-0.6164283513,1.4689603873,-1.5248690842,,,
5.4160000000,677,-1.4081114112,0.1708417956,-1.9697520435,,,
5.4199999999,677,-0.3278623977,0.4420135664,-0.6357917913,,,
5.4239999999,678,1.3848568239,1.1808980985,1.4070995888,,,
5.4279999998,678,1.8427448891,0.7155206588,2.2644358851,,,
5.4319999998,679,0.6186550170,-1.1574222939,1.2848938618,,,
5.4359999998,679,-1.5993639944,-3.5761875265,-0.8977308147,,,
5.4399999999,680,-4.3052846406,-5.9829502732,-3.5600118769,,,
5.4439999999,680,-6.7859924837,-7.8091121780,-5.8715650156,,,
5.4479999999,681,-7.3859084440,-7.6946668319,-6.3222717130,,,
5.4519999998,681,-4.9012073498,-4.6979815543,-3.8060182513,,,
5.4559999998,682,-0.4678801368,-0.0418305664,0.6402554605,,,
5.4599999997,682,3.2470793900,3.6764424065,4.3508393436,,,
5.4639999999,683,4.5934991645,4.9423765341,5.4520616828,,,
5.4679999999,683,3.7623689686,4.0823374163,4.0393607511,,,
5.4719999998,684,1.6608617726,2.0646314959,1.2736421285,,,
5.4759999998,684,-0.6090045818,-0.0998031827,-1.4739616357,,,
5.4800000000,685,-1.4131622189,-0.9783013273,-2.6175049300,,,
5.4839999999,685,0.5316483449,0.5943723917,-1.0168760089,,,
5.4879999999,686,4.4097735107,3.9216147459,2.6139657993,,,
5.4919999999,686,7.6068125957,6.6719713004,5.8512038996,,,
5.4959999998,687,8.2485445136,7.2005690229,6.7753701404,,,
5.4999999998,687,6.5595908567,5.7796776512,5.4467535646,,,
5.5040000000,688,3.6242392072,3.3950348871,2.9639888711,,,
5.5079999999,688,0.2448669589,0.6860733504,0.2098467297,,,
5.5119999999,689,-2.4970922533,-1.4564143456,-1.8867602490,,,
5.5159999998,689,-3.1969721319,-1.8139911842,-2.1860324256,,,
5.5199999998,690,-1.7766569789,-0.4237774391,-0.6241192837,,,
5.5239999997,690,-0.0864813899,0.8578211252,1.1337727122,,,
5.5279999999,691,0.1430675013,0.3908558250,1.3686370386,,,
5.5319999999,691,-0.9655376345,-1.5044827688,0.0370268075,,,
5.5359999998,692,-2.4970879756,-3.6016628340,-1.9189264113,,,
5.5399999998,692,-4.2678245845,-5.4202342815,-4.0378818326,,,
5.5440000000,693,-6.1366795216,-6.7611526562,-6.0142153690,,,
5.5480000000,693,-6.9907818149,-6.7711158458,-6.8401460036,,,
5.5519999999,694,-5.9447817762,-4.9620141401,-5.7517083152,,,
5.5559999999,694,-3.7952366825,-2.4248297351,-3.5449626531,,,
5.5599999998,695,-1.9476644689,-0.6678244188,-1.6920127067,,,
5.5639999998,695,-0.5498402489,0.2366914963,-0.5053986603,,,
5.5680000000,696,1.0579981615,1.1700318170,0.7131905504,,,
5.5719999999,696,2.6273624779,2.1431309225,2.0232902663,,,
5.5759999999,697,3.1706690205,2.3150892617,2.6043215026,,,
5.5799999998,697,2.6354271085,1.6359795017,2.1885307835,,,
5.5839999998,698,2.0311014127,1.0718854791,1.5411489250,,,
5.5879999998,698,1.8231539038,1.0624880365,1.2146214632,,,
5.5919999999,699,1.5193274271,1.0649597599,0.9206890417,,,
5.5959999999,699,1.0709169098,0.9119977900,0.5814411116,,,
5.5999999999,700,1.2288937941,1.2146772628,0.8205695200,,,
5.6039999998,700,2.0267294536,1.9317937072,1.7423737738,,,
5.6079999998,701,2.3580479312,1.9774936553,2.3617557383,,,
5.6119999997,701,1.7019360355,0.9239370875,2.0148706532,,,
5.6159999999,702,0.9595269922,-0.1629468118,1.3509801359,,,
5.6199999999,702,0.8672298654,-0.3192275274,1.1583301796,,,
5.6239999998,703,0.8096319870,0.0147247656,1.1249772551,,,
5.6279999998,703,0.0690642386,0.0919366737,0.6347351621,,,
5.6320000000,704,-0.9217164021,0.0981192143,-0.0915386258,,,
5.6359999999,704,-1.5696321555,0.2967618797,-0.6399690403,,,
5.6399999999,705,-2.2282660016,0.0693976162,-1.3432211687,,,
5.6439999999,705,-3.1774306931,-0.9712020649,-2.4650323905,,,
5.6479999998,706,-3.4550238119,-1.7541554742,-3.1019185494,,,
5.6519999998,706,-1.9779386140,-0.9041217159,-2.0845788917,,,
5.6560000000,707,0.7299326240,1.3320424139,0.3040810122,,,
5.6599999999,707,3.0610653505,3.3884528457,2.5164590376,,,
5.6639999999,708,4.1078713975,4.1706937587,3.4344130490,,,
5.6679999998,708,3.8413805895,3.4619751961,2.9330434696,,,
5.6719999998,709,2.1909891719,1.1836618060,1.1547802319,,,
5.6759999997,709,-0.5903100371,-2.2640737744,-1.4924302832,,,
5.6799999999,710,-3.0510016225,-5.2425032385,-3.7354681616,,,
5.6839999999,710,-3.5663194637,-5.9702350155,-4.1470213994,,,
5.6879999998,711,-2.2576789273,-4.4914779487,-2.7310795007,,,
5.6919999998,711,-0.7103192895,-2.4405168274,-0.8767217126,,,
5.6960000000,712,0.1472924244,-0.8910648131,0.4059175773,,,
5.7000000000,712,0.6277555456,0.3304320620,1.2141680131,,,
5.7039999999,713,0.8031953827,1.2116470887,1.5851234859,,,
5.7079999999,713,0.0047892590,1.0128775118,0.8970660497,,,
5.7119999998,714,-1.7309570338,-0.3021483367,-0.9204874677,,,
5.7159999998,714,-3.1055553615,-1.4422191668,-2.6593707732,,,
5.7200000000,715,-3.1839353227,-1.3776283141,-3.1664179175,,,
5.7239999999,715,-2.4437443661,-0.4947105424,-2.5916692789,,,
5.7279999999,716,-1.4792518568,0.5470385883,-1.5345240941,,,
5.7319999998,716,0.1635883002,1.9922165124,0.1662978309,,,
5.7359999998,717,2.8286698511,4.0390022536,2.7389629537,,,
5.7399999998,717,5.3902336356,5.6446864220,5.2505888273,,,
5.7439999999,718,6.2983331498,5.5260236310,6.2947975109,,,
5.7479999999,718,5.3601155418,3.8020833522,5.5685615220,,,
5.7519999999,719,3.3655272761,1.5210305533,3.7235515201,,,
5.7559999998,719,0.6476431206,-0.8765797051,1.0860896384,,,
5.7599999998,720,-2.6135342786,-3.3628319347,-2.1942108695,,,
5.7639999997,720,-5.1876224873,-5.1005277881,-4.9693800506,,,
5.7679999999,721,-5.5269272284,-4.9506688072,-5.5651237457,,,
5.7719999999,721,-3.6375700240,-3.0917876384,-3.6496089214,,,
5.7759999998,722,-0.9332383463,-0.8188728668,-0.5444069902,,,
5.7799999998,722,1.5454450361,1.1202215072,2.3304827351,,,
5.7840000000,723,3.4806699149,2.7248409334,4.2445192583,,,
5.7879999999,723,4.2389067846,3.5514907690,4.5769920182,,,
5.7919999999,724,3.1379654038,2.8469842677,2.9124953526,,,
5.7959999999,724,0.8389518491,0.9608991778,0.0425632083,,,
5.7999999998,725,-0.9417028859,-0.7038275698,-2.2842677900,,,
5.8039999998,725,-1.3785657263,-1.3913076714,-3.0874732571,,,
5.8080000000,726,-1.1254340657,-1.5771253535,-2.8678540613,,,
5.8119999999,726,-0.8712237500,-1.7195474556,-2.4081207663,,,
5.8159999999,727,-0.5814579218,-1.6531327505,-1.8761362157,,,
5.8199999998,727,-0.5188646099,-1.6028620726,-1.5463981388,,,
5.8239999998,728,-1.5446598953,-2.4247678406,-2.1947239019,,,
5.8279999997,728,-3.4780026292,-3.9623527235,-3.7529914585,,,
5.8319999999,729,-4.3791936502,-4.3558308237,-4.4721170098,,,
5.8359999999,729,-2.6657212275,-2.1524865996,-2.6711435723,,,
5.8399999999,730,0.8898540956,1.7320676655,1.1669872860,,,
5.8439999998,730,4.2081302829,5.1178976111,4.9766288474,,,
5.8480000000,731,6.0100997170,6.7431966691,7.1801097107,,,
5.8520000000,731,5.9682273861,6.4566646585,7.3042055552,,,
5.8559999999,732,3.8775222013,4.2931026920,5.3212942402,,,
5.8599999999,732,0.1372773161,0.7494047417,1.7592291334,,,
5.8639999998,733,-3.4619628635,-2.5252472326,-1.7235285685,,,
5.8679999998,733,-4.9458116492,-3.8004626578,-3.2595021146,,,
5.8720000000,734,-4.1652348718,-3.0663029881,-2.5898999468,,,
5.8759999999,734,-2.5334636231,-1.6930653663,-1.0624571245,,,
5.8799999999,735,-1.0399289386,-0.5007717463,0.1658921766,,,
5.8839999998,735,0.2375271728,0.6366495122,0.8872353622,,,
5.8879999998,736,0.9628011746,1.5224116189,0.9343034564,,,
5.8919999998,736,0.4714227029,1.4550701460,-0.0915926753,,,
5.8959999999,737,-0.9329844780,0.4743593265,-1.8259863972,,,
5.8999999999,737,-1.9894700429,-0.5427154438,-3.0639728558,,,
5.9039999999,738,-2.1563543911,-1.3407975806,-3.2276762260,,,
5.9079999998,738,-2.0511043943,-2.5532823390,-2.9512036164,,,
5.9119999998,739,-1.8676512323,-4.0698866771,-2.7146164198,,,
5.9159999997,739,-0.7313305368,-4.4538011309,-1.9395754902,,,
5.9199999999,740,1.7010325849,-2.7327046728,-0.1523368679,,,
5.9239999999,740,4.2519194590,0.2996908872,1.9204598336,,,
5.9279999998,741,5.7044502652,3.3128150346,3.3338009117,,,
5.9319999998,741,6.1988225659,5.8776808232,4.1989808433,,,
5.9360000000,742,6.2562213863,7.7908427400,4.9857689033,,,
5.9399999999,742,5.5050635158,8.0991904293,5.2737978280,,,
5.9439999999,743,3.4868042656,6.0833436417,4.3105399071,,,
5.9479999999,743,0.8432318286,2.5376754200,2.3016159067,,,
5.9519999998,744,-1.4457266299,-1.0443536184,0.1018751853,,,
5.9559999998,744,-3.3256361381,-4.0154909460,-1.9584028187,,,
5.9600000000,745,-5.0895488475,-6.3378059309,-3.9202765975,,,
5.9639999999,745,-6.1666687635,-7.4646879896,-5.2221674526,,,
5.9679999999,746,-5.7325240901,-6.7734504751,-5.0489238233,,,
5.9719999998,746,-4.1590951660,-4.8345847082,-3.6241224742,,,
5.9759999998,747,-2.5821571910,-2.9294565053,-2.0575415265,,,
5.9799999997,747,-1.2683067905,-1.3881395954,-0.8452514366,,,
5.9839999999,748,0.2572712649,0.3297687914,0.3774429232,,,
5.9879999999,748,1.6702151129,2.0303772774,1.5559131974,,,
5.9919999999,749,1.9631875296,2.7228195567,1.9741990538,,,
5.9959999998,749,1.1586728684,2.2675198388,1.5422038022,,,
6.0000000000,750,0.4332881990,1.6871441880,1.0930961708,,,
6.0040000000,750,0.3304887021,1.5878640840,1.0262855968,,,
6.0079999999,751,0.2326859827,1.5560004652,0.7874184575,,,
6.0119999999,751,-0.1324255619,1.3996388729,0.1313671132,,,
6.0159999998,752,-0.0758382272,1.6585826602,-0.1988365444,,,
6.0199999998,752,0.6484335102,2.3468826244,0.3071448925,,,
6.0240000000,753,1.1294238087,2.4321321577,0.9984031899,,,
6.0279999999,753,0.7670454778,1.3623603564,1.1472465908,,,
6.0319999999,754,0.3300724309,0.0709881028,1.0848881515,,,
6.0359999998,754,0.6482859300,-0.4023491391,1.3439484453,,,
6.0399999998,755,1.2713466173,-0.3354686811,1.4829283416,,,
6.0439999998,755,1.4451547899,-0.4281394073,0.8508673589,,,
6.0480000000,756,1.4395159992,-0.4677476510,-0.1421825248,,,
6.0519999999,756,1.6844556202,-0.1073925921,-0.7140807540,,,
6.0559999999,757,1.4807796287,-0.1107091687,-1.1189264710,,,
6.0599999998,757,-0.0006106132,-1.3753218541,-2.1042164657,,,
6.0639999998,758,-2.0960433033,-3.3032898944,-3.4028936048,,,
6.0679999997,758,-3.4174664725,-4.4900943922,-4.0397985246,,,
6.0719999999,759,-3.6793683684,-4.5213492508,-3.8066699638,,,
6.0759999999,759,-3.4197313709,-3.8203695323,-3.1947777617,,,
6.0799999998,760,-2.4896209604,-2.2758731528,-2.1391406295,,,
6.0839999998,760,-0.3725726070,0.4720413169,-0.1543854565,,,
6.0880000000,761,2.2612677373,3.5942957769,2.3058979266,,,
6.0919999999,761,3.8554415511,5.4244390940,3.9083298123,,,
6.0959999999,762,3.8690767727,5.3842362725,4.0842628906,,,
6.0999999999,762,3.0651802662,4.3122742950,3.5121259061,,,
6.1039999998,763,1.8818556095,2.8118793872,2.7386790770,,,
6.1079999998,763,0.0035553770,0.7000598798,1.5398662453,,,
6.1120000000,764,-2.1648037493,-1.6239659714,0.0736839823,,,
6.1159999999,764,-3.1816657418,-2.8254432863,-0.6262451042,,,
6.1199999999,765,-2.4318468731,-2.3590355833,-0.0684025455,,,
6.1239999998,765,-1.0418656711,-1.3100443919,0.8070321762,,,
6.1279999998,766,-0.2590062494,-0.8138919714,0.9027190427,,,
6.1319999998,766,-0.0739215542,-0.7274989503,0.2696503039,,,
6.1359999999,767,-0.0650308749,-0.5136214696,-0.4994675095,,,
6.1399999999,767,-0.3424542859,-0.2985677021,-1.2644500757,,,
6.1439999999,768,-0.7772486235,-0.1907906279,-1.9221802736,,,
6.1479999998,768,-0.4010948331,0.4523244911,-1.7968190136,,,
6.1519999998,769,1.2884365035,1.9892289388,-0.4854195823,,,
6.1559999997,769,3.1254778220,3.3880495020,1.0991471251,,,
6.1599999999,770,3.5006080524,3.2896881035,1.5507219401,,,
6.1639999999,770,2.3218031519,1.7806967292,0.6655046533,,,
6.1679999998,771,0.7140064751,0.0413327887,-0.6015185030,,,
6.1719999998,771,-0.6886866557,-1.3463460122,-1.6153105575,,,
6.1760000000,772,-1.8828389868,-2.5204883279,-2.3602454619,,,
6.1799999999,772,-2.4098829996,-3.1816658844,-2.4615435422,,,
6.1839999999,773,-1.6945379420,-2.7921416728,-1.3262965976,,,
6.1879999998,773,-0.4273369525,-1.8779892130,0.5149866133,,,
6.1919999998,774,-0.1896484473,-1.7482552330,1.4577717162,,,
6.1959999998,774,-1.4528364061,-2.6851469919,0.6906941163,,,
6.2000000000,775,-3.0728376578,-3.5535899244,-0.9138284670,,,
6.2039999999,775,-3.9594452103,-3.4725150738,-2.1547298603,,,
6.2079999999,776,-3.9627355137,-2.6480749334,-2.6615050619,,,
6.2119999998,776,-2.7844039945,-1.1448290340,-2.1598747951,,,
6.2159999998,777,0.2997806320,1.6355390853,0.0073383604,,,
6.2199999997,777,4.7425132622,5.4043240264,3.5502082895,,,
6.2239999999,778,8.2263824472,8.3258260242,6.5565583571,,,
6.2279999999,778,8.8895707853,8.8930142220,7.2424810776,,,
6.2319999998,779,6.9912503433,7.3860998493,5.6043468460,,,
6.2359999998,779,3.7302224223,4.7606465246,2.6548191708,,,
6.2400000000,780,-0.2271745807,1.3601808902,-0.9139614533,,,
6.2439999999,780,-4.0927963857,-2.3002896005,-4.3564749770,,,
6.2479999999,781,-6.2486822586,-4.7463353576,-6.2437955355,,,
6.2519999999,781,-5.7252616699,-4.9647730959,-5.6413380262,,,
6.2559999998,782,-3.6454085331,-3.8788651945,-3.4697413402,,,
6.2599999998,782,-1.9027790307,-3.1436974395,-1.5245634985,,,
6.2640000000,783,-0.9715382896,-3.0235009904,-0.4415175727,,,
6.2679999999,783,-0.1911900207,-2.6442985897,0.3374406745,,,
6.2719999999,784,0.4883435358,-1.7560845542,1.0237915991,,,
6.2759999998,784,0.5731914706,-0.8267467225,1.2656080436,,,
6.2799999998,785,0.3606310761,0.1735315339,1.2479378247,,,
6.2839999998,785,0.5777008905,1.5280753866,1.5717731872,,,
6.2879999999,786,0.8901728756,2.5206135745,1.9857712643,,,
6.2919999999,786,0.3011756682,1.9649567857,1.5330831054,,,
6.2959999999,787,-1.0311221462,0.0378464711,0.1265994990,,,
6.2999999998,787,-1.8534414217,-1.7700721298,-1.2115206376,,,
6.3039999998,788,-1.7256125288,-2.5926001953,-1.8744402103,,,
6.3079999997,788,-1.3545833003,-2.7108068051,-2.1950230841,,,
6.3119999999,789,-0.8699268345,-2.0905645280,-2.1588196505,,,
6.3159999999,789,0.5927497108,-0.0428952906,-0.9652547615,,,
6.3199999998,790,3.0814605554,3.1472129277,1.4745965869,,,
6.3239999998,790,5.0801022782,5.6899228276,3.7369401164,,,
6.3280000000,791,5.3162397480,6.1575442233,4.3878026522,,,
6.3319999999,791,4.1359655383,4.8345005634,3.4495495371,,,
6.3359999999,792,2.3812313219,2.6128182186,1.6829008260,,,
6.3399999999,792,0.1389905777,-0.2517756352,-0.6311735219,,,
6.3439999998,793,-2.4211027157,-3.3762604281,-3.1993708741,,,
6.3479999998,793,-4.1163348442,-5.3917841895,-4.8585394970,,,
6.3520000000,794,-4.0031248289,-5.2075081823,-4.5618835379,,,
6.3559999999,794,-2.8273667979,-3.4941912235,-2.8321188771,,,
6.3599999999,795,-1.9547619045,-1.7125474188,-1.0550785518,,,
6.3639999998,795,-1.4751719058,-0.2555938829,0.3222892948,,,
6.3679999998,796,-0.6532233820,1.2426146634,1.7128366489,,,
6.3719999997,796,0.3693370086,2.4107491209,2.9188904420,,,
6.3759999999,797,0.8674253838,2.5115329673,3.2135546295,,,
6.3799999999,797,1.1037879503,1.9713921554,2.7769202641,,,
6.3839999998,798,1.9750574696,1.9490620829,2.6058981969,,,
6.3879999998,798,3.2860543605,2.4901725807,2.9205618939,,,
6.3920000000,799,3.8899150976,2.5627894143,2.9328128715,,,
6.3959999999,799,3.4526636326,1.8621118632,2.2938271697,,,
6.3999999999,800,2.6630578946,1.1456133598,1.5260043688,,,
6.4039999999,800,1.7232176959,0.7069526968,0.7999725439,,,
6.4079999998,801,0.1190756487,-0.0288210232,-0.4580836903,,,
6.4119999998,801,-1.8836244451,-1.0823287082,-2.2755528375,,,
6.4160000000,802,-2.9804733203,-1.4948339120,-3.5984524463,,,
6.4199999999,802,-2.6032148027,-0.8891878771,-3.6990673743,,,
6.4239999999,803,-1.7066023425,-0.2202639055,-3.1282166723,,,
6.4279999998,803,-1.2158862564,-0.3085698886,-2.5968452399,,,
6.4319999998,804,-0.9483737331,-0.7899715278,-1.9469087001,,,
6.4359999998,804,-0.7219694744,-1.2248078020,-1.0276630416,,,
6.4399999999,805,-1.1882807173,-2.0627773471,-0.5653334219,,,
6.4439999999,805,-2.6165528307,-3.6124209849,-1.1609542076,,,
6.4479999999,806,-3.9390469447,-5.0460913345,-2.1760296862,,,
6.4519999998,806,-4.0488882272,-5.4196641565,-2.5814703381,,,
6.4559999998,807,-3.1861798697,-4.8784829019,-2.2901847303,,,
6.4599999997,807,-2.0101060748,-3.8221182337,-1.6645635672,,,
6.4639999999,808,-0.2329618177,-1.7263791331,-0.3753167472,,,
6.4679999999,808,2.4828721586,1.8374115917,1.9572888194,,,
6.4719999998,809,5.0281759307,5.6226737120,4.4083737186,,,
6.4759999998,809,5.7580588823,7.5858666292,5.3821892615,,,
6.4800000000,810,4.5170238003,7.0587093054,4.4889157500,,,
6.4839999999,810,2.5032955021,4.9334577156,2.7085762111,,,
6.4879999999,811,0.5082197246,2.1234003672,0.8564299190,,,
6.4919999999,811,-1.3731249863,-0.8302582895,-0.9173451938,,,
6.4959999998,812,-2.5750367151,-2.8884460424,-2.1553762486,,,
6.4999999998,812,-2.2293159183,-2.8935402865,-2.0462769983,,,
6.5040000000,813,-0.6494033800,-1.1101633015,-0.7075482432,,,
6.5079999999,813,0.7713446009,0.8865586986,0.6570775561,,,
6.5119999999,814,1.3610348599,2.0805540319,1.2631019565,,,
6.5159999998,814,1.6030916348,2.6191996835,1.3982603816,,,
6.5199999998,815,1.6308854712,2.4910504947,1.2815370742,,,
6.5239999997,815,0.7442897911,1.0637371527,0.4244396923,,,
6.5279999999,816,-1.0449834014,-1.5022566314,-1.2364263382,,,
6.5319999999,816,-2.3289301396,-3.6594165583,-2.5667340825,,,
6.5359999998,817,-2.0250356589,-4.1691555324,-2.4963713065,,,
6.5399999998,817,-0.7600905426,-3.4688915245,-1.3776692061,,,
6.5440000000,818,0.2866157079,-2.5691891423,-0.2486141380,,,
6.5480000000,818,0.9011609870,-1.5675199630,0.5854363324,,,
6.5519999999,819,1.2583563597,-0.2323120178,1.2911661698,,,
6.5559999999,819,0.8980834999,0.8774186581,1.5127947545,,,
6.5599999998,820,-0.4266024161,1.1513832723,0.8583564539,,,
6.5639999998,820,-1.6628036666,1.1194069889,-0.0379515993,,,
6.5680000000,821,-1.5989242868,1.6032330856,-0.1785933628,,,
6.5719999999,821,-0.5861321125,2.1994468783,0.2961310639,,,
6.5759999999,822,0.1172436310,1.9237719703,0.4086568075,,,
6.5799999998,822,0.2174442256,0.9464910392,-0.0589771350,,,
6.5839999998,823,0.3111357095,0.3255046995,-0.4440209457,,,
6.5879999998,823,0.4080242288,0.3108798901,-0.5466804317,,,
6.5919999999,824,0.0176926550,0.3015896251,-0.8287025979,,,
6.5959999999,824,-0.4952834266,0.2751637312,-1.2178263375,,,
6.5999999999,825,-0.2069774334,0.7366730820,-1.0195359518,,,
6.6039999998,825,0.6542554949,1.2430407955,-0.2765745703,,,
6.6079999998,826,0.8113915659,0.5761703697,0.0505709186,,,
6.6119999997,826,-0.0312647174,-1.3032807073,-0.3512536746,,,
6.6159999999,827,-0.7172354209,-2.8927700823,-0.5979657159,,,
6.6199999999,827,-0.5130197556,-3.1468114847,-0.1053613146,,,
6.6239999998,828,-0.0147720734,-2.5301808191,0.5255416663,,,
6.6279999998,828,0.2965345019,-1.6340199936,0.7540590983,,,
6.6320000000,829,0.9345332246,-0.1914406461,1.0831425968,,,
6.6359999999,829,2.0790025414,1.7537135869,1.9506049965,,,
6.6399999999,830,2.7354961166,3.0518603485,2.6689905548,,,
6.6439999999,830,2.2191605441,2.8897562931,2.4704526791,,,
6.6479999998,831,1.3536228294,2.0183991760,1.7799267985,,,
6.6519999998,831,1.1535117387,1.5227332435,1.4128177528,,,
6.6560000000,832,1.2981982560,1.2880874995,1.2076845883,,,
6.6599999999,832,0.9886372376,0.7428589126,0.5453046015,,,
6.6639999999,833,0.3946399356,0.2062552274,-0.3699686664,,,
6.6679999998,833,0.0271135649,0.2222338118,-0.9199049971,,,
6.6719999998,834,-0.5670439246,0.2382243642,-1.3302340909,,,
6.6759999997,834,-2.1235992378,-0.6975393977,-2.3051578613,,,
6.6799999999,835,-4.1853272419,-2.3618117359,-3.6657281516,,,
6.6839999999,835,-5.6543676241,-3.7695356454,-4.5583923164,,,
6.6879999998,836,-6.3949049004,-4.7358675287,-4.8335422512,,,
6.6919999998,836,-6.8700540522,-5.6169302398,-4.9546988533,,,
6.6960000000,837,-6.5622585215,-5.8275756720,-4.6437544903,,,
6.7000000000,837,-4.3756261097,-4.2139594011,-2.9887728325,,,
6.7039999999,838,-0.5658187909,-0.9366386914,-0.0609028058,,,
6.7079999999,838,3.2063010365,2.4223514251,2.8109147246,,,
6.7119999998,839,5.8485458078,4.7776956091,4.6767475486,,,
6.7159999998,839,7.5283430504,6.2847924470,5.7731411131,,,
6.7200000000,840,8.2796622341,7.0185170082,6.3506954017,,,
6.7239999999,840,7.4570330059,6.3880713088,5.9061219789,,,
6.7279999999,841,5.1466650720,4.4563467288,4.2771899666,,,
6.7319999998,841,2.7556693439,2.5337346737,2.4472733817,,,
6.7359999998,842,1.3485621477,1.5954290738,1.3599031654,,,
6.7399999998,842,0.4518175583,1.0922888501,0.7204064170,,,
6.7439999999,843,-0.7044886810,0.1253959160,-0.1818910086,,,
6.7479999999,843,-1.8322581073,-1.1746303951,-1.2087768932,,,
6.7519999999,844,-2.3968964610,-2.3105129790,-1.8480541002,,,
6.7559999998,844,-2.7348525952,-3.4500586203,-2.2519285722,,,
6.7599999998,845,-3.2346763093,-4.6887849208,-2.7430532777,,,
6.7639999997,845,-3.2889540884,-5.1315294557,-2.8539515161,,,
6.7679999999,846,-2.2763879433,-3.9619599517,-2.0062828461,,,
6.7719999999,846,-0.8550599764,-1.8267741309,-0.7287255869,,,
6.7759999998,847,-0.0169357620,0.0354101250,-0.0224045942,,,
6.7799999998,847,0.5293604899,1.4910029567,0.1892845755,,,
6.7840000000,848,1.6736237029,3.0786878092,0.7621265519,,,
6.7879999999,848,3.0441309851,4.3538761151,1.6459662611,,,
6.7919999999,849,3.2839370941,4.1350716379,1.7900558009,,,
6.7959999999,849,1.9877629751,2.2728432498,0.7761943073,,,
6.7999999998,850,-0.0564358280,-0.2251505489,-0.7365940454,,,
6.8039999998,850,-2.4373342945,-2.8116223836,-2.3539573348,,,
6.8080000000,851,-5.3952487264,-5.7127610050,-4.4134547631,,,
6.8119999999,851,-8.3749806048,-8.4649074234,-6.7232624917,,,
6.8159999999,852,-9.7575197437,-9.5444442555,-7.9975187739,,,
6.8199999998,852,-8.5462036775,-7.9932971731,-7.1732983040,,,
6.8239999998,853,-5.3199357945,-4.4369721804,-4.5074739756,,,
6.8279999997,853,-1.1681248165,-0.0728640951,-0.8827437426,,,
6.8319999999,854,3.2052463422,4.3026639889,3.0859947710,,,
6.8359999999,854,6.8455523858,7.7520901817,6.6115649582,,,
6.8399999999,855,8.3587723174,8.9723138766,8.4154955887,,,
6.8439999998,855,7.3733760351,7.6505018213,7.9094101193,,,
6.8480000000,856,5.2901511789,5.1960040595,6.0922804156,,,
6.8520000000,856,3.6656603389,3.1962090566,4.3736861818,,,
6.8559999999,857,2.6586770305,1.8809542533,3.0560863525,,,
6.8599999999,857,1.8649466975,0.8805913733,1.7952141362,,,
6.8639999998,858,1.6350020248,0.5024029693,0.8578600070,,,
6.8679999998,858,2.3693599954,1.0921655447,0.7822252775,,,
6.8720000000,859,3.2747885166,1.8675246252,1.1923191235,,,
6.8759999999,859,3.1531284179,1.7065963803,1.1207207323,,,
6.8799999999,860,1.9902213140,0.6943881768,0.3437123177,,,
6.8839999998,860,0.5554777558,-0.3194725073,-0.6652105064,,,
6.8879999998,861,-1.0545177510,-1.2425377724,-1.8527418145,,,
6.8919999998,861,-3.0553051524,-2.4471928809,-3.3978598190,,,
6.8959999999,862,-4.6029716688,-3.3554897906,-4.5638582013,,,
6.8999999999,862,-4.4076785499,-2.8787218281,-4.1303251173,,,
6.9039999999,863,-2.6647185977,-1.2205739121,-2.1530563431,,,
6.9079999998,863,-0.9774650902,0.1535656379,-0.1490590629,,,
6.9119999998,864,-0.3192925832,0.4399490274,0.7129283216,,,
6.9159999997,864,-0.3765376559,0.1032055529,0.5759314819,,,
6.9199999999,865,-0.9553811180,-0.5631624818,-0.1479801992,,,
6.9239999999,865,-2.4794039774,-2.0013201055,-1.5132410097,,,
6.9279999998,866,-4.5790750523,-3.9850933452,-3.1238018325,,,
6.9319999998,866,-5.6465097282,-5.0756938414,-3.6755139087,,,
6.9360000000,867,-4.6811111321,-4.3739536411,-2.4157611812,,,
6.9399999999,867,-2.4829377543,-2.6925802512,-0.2717165198,,,
6.9439999999,868,-0.2612626987,-1.1555547229,1.3406127882,,,
6.9479999999,868,1.7505808086,0.2098819241,2.0540840119,,,
6.9519999998,869,3.4444664175,1.5718819723,2.0867286630,,,
6.9559999998,869,3.9115846263,2.1906493348,1.2125332373,,,
6.9600000000,870,2.6180805233,1.4356964481,-0.6343809471,,,
6.9639999999,870,0.6142931321,0.0634870713,-2.4044950788,,,
6.9679999999,871,-0.6174173518,-0.6840707109,-2.8130672692,,,
6.9719999998,871,-0.8600657271,-0.6132221854,-1.8533228797,,,
6.9759999998,872,-0.6497467721,-0.1312605570,-0.4337103847,,,
6.9799999997,872,0.1880120159,1.0516495933,1.1200586423,,,
6.9839999999,873,2.1178152353,3.3973184913,3.0566065290,,,
6.9879999999,873,4.4799484577,6.0906802542,4.9685491090,,,
6.9919999999,874,5.9339657505,7.5284665639,5.8893491474,,,
6.9959999998,874,6.0729283955,7.1191206537,5.6067336401,,,
7.0000000000,875,5.3027032904,5.3776644866,4.6854151457,,,
7.0040000000,875,3.4632516779,2.5427035445,3.2110652405,,,
7.0079999999,876,0.1195815005,-1.3896239008,0.7870784703,,,
7.0119999999,876,-3.8196502685,-5.2982781293,-2.0836702638,,,
7.0159999998,877,-6.3129175705,-7.1994540097,-3.8859762838,,,
7.0199999998,877,-6.3170600848,-6.3059968326,-3.7743801651,,,
7.0240000000,878,-4.5444580108,-3.7049867148,-2.3940176485,,,
7.0279999999,878,-1.9639832907,-0.7385828011,-0.6846049380,,,
7.0319999999,879,1.0716767496,2.0514458318,1.0724776037,,,
7.0359999998,879,3.8012050877,4.0159924929,2.4808919289,,,
7.0399999998,880,4.6889318329,3.9583356345,2.4619907425,,,
7.0439999998,880,3.0900982431,1.6104664382,0.4734223317,,,
7.0480000000,881,0.2715815487,-1.4785373371,-2.4327862679,,,
7.0519999999,881,-2.1076098781,-3.5258477174,-4.6940451496,,,
7.0559999999,882,-3.6004692946,-4.1884826262,-5.7624281537,,,
7.0599999998,882,-4.3024691021,-3.8985134414,-5.7636362915,,,
7.0639999998,883,-3.7964772714,-2.6357274411,-4.4939265827,,,
7.0679999997,883,-2.0176732963,-0.5375715036,-1.9640266811,,,
7.0719999999,884,-0.2930320396,1.1521792218,0.6055355084,,,
7.0759999999,884,-0.0740696368,1.1886336316,1.6789199753,,,
7.0799999998,885,-1.0857236782,-0.0225938040,1.1546212632,,,
7.0839999998,885,-1.9552910297,-1.0805823587,0.1801894960,,,
7.0880000000,886,-2.1598664827,-1.4820759138,-0.5095920360,,,
7.0919999999,886,-2.0378893739,-1.6347407144,-0.9359048096,,,
7.0959999999,887,-1.3671349393,-1.4028866720,-0.8039920006,,,
7.0999999999,887,0.4855355305,-0.1307586441,0.5230509837,,,
7.1039999998,888,3.0848347961,1.9308283373,2.7779057270,,,
7.1079999998,888,5.0488050160,3.6127900113,4.6895455662,,,
7.1120000000,889,5.7785407499,4.3978574053,5.4759739252,,,
7.1159999999,889,5.8054430851,4.7628693465,5.4498863091,,,
7.1199999999,890,5.3004317587,4.7685476299,4.8584255302,,,
7.1239999998,890,3.6533664526,3.6620183140,3.2930397621,,,
7.1279999998,891,0.9425669681,1.3516348433,0.8201635088,,,
7.1319999998,891,-1.5586801962,-1.0086011827,-1.4244917879,,,
7.1359999999,892,-2.9843986074,-2.5438731250,-2.5514303861,,,
7.1399999999,892,-3.7622983916,-3.5880189923,-2.8987777099,,,
7.1439999999,893,-4.2432188706,-4.4179513247,-2.9699325896,,,
7.1479999998,893,-3.7485174575,-4.3170379470,-2.3980694212,,,
7.1519999998,894,-1.9279914254,-2.8618241267,-0.9172294014,,,
7.1559999997,894,0.0778315685,-1.0610212292,0.5205984699,,,
7.1599999999,895,0.9564022264,-0.1193332878,0.7282249578,,,
7.1639999999,895,0.8440239482,0.1076664651,-0.1746348705,,,
7.1679999998,896,0.6083796583,0.4404005022,-1.1771040016,,,
7.1719999998,896,0.3484039203,0.9354982195,-1.8327830557,,,
7.1760000000,897,-0.2501640595,1.1761828320,-2.3004028678,,,
7.1799999999,897,-0.7781457789,1.3424475599,-2.3819455940,,,
7.1839999999,898,-0.6510322674,1.7671568825,-1.7263728489,,,
7.1879999998,898,-0.3305184488,1.8736219151,-0.7996073557,,,
7.1919999998,899,-0.6432776987,0.8855534733,-0.4370421822,,,
7.1959999998,899,-1.2082142860,-0.6531584726,-0.4754211596,,,
7.2000000000,900,-0.9582818267,-1.4237771832,-0.0259586554,,,
7.2039999999,900,-0.0528210991,-1.2849154166,0.8583872878,,,
7.2079999999,901,0.2262507054,-1.2944548016,1.0684540896,,,
7.2119999998,901,-0.4513614072,-1.7734982523,0.2392486819,,,
7.2159999998,902,-0.9487796824,-1.8108820659,-0.5696459667,,,
7.2199999997,902,-0.4341683375,-0.9175577701,-0.3931246551,,,
7.2239999999,903,0.7240988815,0.2528589327,0.5845114962,,,
7.2279999999,903,2.1063338397,1.2290381533,1.9157471121,,,
7.2319999998,904,3.8319007172,2.4123872298,3.6154072088,,,
7.2359999998,904,5.4937269814,3.8802461184,5.3429597997,,,
7.2400000000,905,5.8614150914,4.7459702699,5.9549422571,,,
7.2439999999,905,4.4102732603,4.4373672055,4.7599206984,,,
7.2479999999,906,2.1252988954,3.5560632967,2.4857905666,,,
7.2519999999,906,0.1016962817,2.7114591713,0.2510018829,,,
7.2559999998,907,-1.6875356496,1.4806731911,-1.7269044333,,,
7.2599999998,907,-3.4810451542,-0.5708779767,-3.6053658783,,,
7.2640000000,908,-4.6016824906,-2.6940984696,-4.8277122727,,,
7.2679999999,908,-4.3581769077,-3.8786304904,-4.6813533306,,,
7.2719999999,909,-3.3174257693,-4.2685100087,-3.5106865836,,,
7.2759999998,909,-2.4464294470,-4.4733565272,-2.2340067277,,,
7.2799999998,910,-1.6245460451,-4.1612942880,-1.0134063736,,,
7.2839999998,910,-0.3136105904,-2.7184291116,0.4255974683,,,
7.2879999999,911,0.8759498463,-0.8112690132,1.5035771012,,,
7.2919999999,911,0.7588073548,0.1313696871,1.1587843059,,,
7.2959999999,912,-0.6005011781,-0.2490237245,-0.5342268572,,,
7.2999999998,912,-2.0153833617,-1.1776094450,-2.3078246908,,,
7.3039999998,913,-2.9326663403,-2.2571351993,-3.3328268090,,,
7.3079999997,913,-3.6726753593,-3.6362630749,-3.7783005972,,,
7.3119999999,914,-3.9942979182,-4.7128919039,-3.6443394645,,,
7.3159999999,914,-3.0086189782,-4.2548347166,-2.3971777535,,,
7.3199999998,915,-0.7744914423,-2.1349934072,-0.1805525599,,,
7.3239999998,915,1.5385053803,0.4688845211,1.9121461451,,,
7.3280000000,916,3.3768422085,2.8503866410,3.2812293035,,,
7.3319999999,916,5.2163931532,5.3010265894,4.3732125731,,,
7.3359999999,917,6.9411511531,7.5865299565,5.3471165188,,,
7.3399999999,917,7.3357533470,8.4334823452,5.3882863873,,,
7.3439999998,918,5.8364679601,7.2200107696,4.0376402301,,,
7.3479999998,918,3.5103441160,4.9665457980,2.1757882869,,,
7.3520000000,919,1.5169189731,2.8776123947,0.8347143462,,,
7.3559999999,919,-0.2613361562,0.9810467074,-0.1197072911,,,
7.3599999999,920,-2.1894909474,-0.9583959969,-1.2294530804,,,
7.3639999998,920,-3.6175032871,-2.2828274592,-2.1778257687,,,
7.3679999998,921,-3.7699769773,-2.3053679774,-2.3238618414,,,
7.3719999997,921,-3.0638934029,-1.5472935412,-1.9135841025,,,
7.3759999999,922,-2.4155627408,-1.0313039670,-1.6853813505,,,
7.3799999999,922,-1.8169484458,-0.8511748404,-1.5923724124,,,
7.3839999998,923,-0.7141817391,-0.4652654527,-0.9683201496,,,
7.3879999998,923,0.6087019419,-0.0190737975,0.1511795308,,,
7.3920000000,924,1.2823994649,-0.1595962986,0.9676381996,,,
7.3959999999,924,1.3030993965,-0.6986507622,1.2130030975,,,
7.3999999999,925,1.4020017919,-0.8006157132,1.3570323409,,,
7.4039999999,925,1.5265393201,-0.5296994478,1.4160662019,,,
7.4079999998,926,0.8457771624,-0.8728186458,0.7790493093,,,
7.4119999998,926,-0.6422066053,-2.0710544408,-0.5165134576,,,
7.4160000000,927,-1.8954686428,-3.2231593026,-1.5159258749,,,
7.4199999999,927,-2.4256416043,-3.7603278224,-1.7338521564,,,
7.4239999999,928,-2.7359412649,-3.9815624102,-1.6996507709,,,
7.4279999998,928,-2.9029376989,-3.8348222682,-1.7187979156,,,
7.4319999998,929,-2.1889308542,-2.6042189021,-1.2624781185,,,
7.4359999998,929,-0.5248124740,-0.3279068361,-0.1411757479,,,
7.4399999999,930,1.0319435754,1.8048657095,0.8596636218,,,
7.4439999999,930,1.9121940324,3.0955463878,1.2286437576,,,
7.4479999999,931,2.7680741056,4.1264529292,1.5489237282,,,
7.4519999998,931,3.8831870583,5.2170277166,2.2344973716,,,
7.4559999998,932,4.1471738042,5.3552304242,2.4217676730,,,
7.4599999997,932,2.5490956815,3.6158771360,1.0959514822,,,
7.4639999999,933,-0.3389637084,0.6331494200,-1.4060139814,,,
7.4679999999,933,-3.2491902390,-2.2710051591,-3.8907444075,,,
7.4719999998,934,-5.5824133392,-4.5030651817,-5.6156359277,,,
7.4759999998,934,-6.9699523025,-5.8350824344,-6.2427615133,,,
7.4800000000,935,-6.5339588825,-5.5992071410,-5.2224448751,,,
7.4839999999,935,-3.8705602545,-3.4570982253,-2.3778274326,,,
7.4879999999,936,-0.2036152993,-0.4462825961,1.1956795026,,,
7.4919999999,936,2.6412532752,1.8930516958,3.8816274762,,,
7.4959999998,937,4.1111984093,3.1727833193,5.1439019817,,,
7.4999999998,937,4.7452833919,3.9123106255,5.4940151109,,,
7.5040000000,938,4.6178837731,4.0418941349,5.0995618633,,,
7.5079999999,938,3.3923141642,3.0213438474,3.6505502901,,,
7.5119999999,939,1.7209897379,1.3162894326,1.6166421649,,,
7.5159999998,939,1.0329327712,0.3104324275,0.3231890832,,,
7.5199999998,940,1.6960931579,0.5283964730,0.3832821293,,,
7.5239999997,940,2.6769055130,1.1631122555,1.0854357999,,,
7.5279999999,941,3.2532868887,1.5999835135,1.7138649195,,,
7.5319999999,941,3.6963102136,2.0893039879,2.3526256111,,,
7.5359999998,942,3.9165375541,2.5275066851,2.8707514237,,,
7.5399999998,942,2.9592663012,2.0146726928,2.3458647815,,,
7.5440000000,943,0.5574950117,0.3334416524,0.3460671654,,,
7.5480000000,943,-2.0681627010,-1.3412258673,-2.1393721458,,,
7.5519999999,944,-3.7642834486,-2.0102959619,-3.8982546051,,,
7.5559999999,944,-4.7268907406,-2.0948612149,-4.8533638804,,,
7.5599999998,945,-5.3975901658,-2.2731623423,-5.3684606038,,,
7.5639999998,945,-5.2363045239,-2.1523929751,-5.0497071193,,,
7.5680000000,946,-3.7806290364,-1.2306947405,-3.4392955347,,,
7.5719999999,946,-1.9805683655,-0.2563474264,-1.2991530070,,,
7.5759999999,947,-1.1743058086,-0.3433715153,0.0497926062,,,
7.5799999998,947,-1.4064816546,-1.3877979555,0.2992139428,,,
7.5839999998,948,-1.8840571637,-2.5014771581,0.0191331131,,,
7.5879999998,948,-2.3869983362,-3.3786815074,-0.5793412984,,,
7.5919999999,949,-2.9308140549,-3.9875219320,-1.5011762950,,,
7.5959999999,949,-2.6082845097,-3.4616293313,-1.8867192528,,,
7.5999999999,950,-0.4049801355,-0.9147348423,-0.5844418482,,,
7.6039999998,950,2.9253026863,2.7080012901,2.0376417207,,,
7.6079999998,951,5.3099710967,5.1166022570,4.1650277009,,,
7.6119999997,951,5.7384270412,5.1624076902,4.6466784135,,,
7.6159999999,952,4.8962601922,3.6032384732,3.8924716684,,,
7.6199999999,952,3.5529812928,1.4830358709,2.6020948541,,,
7.6239999998,953,1.8384482493,-0.7723744618,0.9454685051,,,
7.6279999998,953,0.2426197426,-2.5029592539,-0.6509036376,,,
7.6320000000,954,-0.2491716786,-2.6636309723,-1.2145179119,,,
7.6359999999,954,0.4121904754,-1.2257494855,-0.4393442450,,,
7.6399999999,955,0.9940516931,0.4126096398,0.7245483262,,,
7.6439999999,955,0.6151339019,1.0576493561,1.2991177483,,,
7.6479999998,956,-0.3736435466,0.7798247318,1.2454088657,,,
7.6519999998,956,-1.5697609871,-0.0885951146,0.6862016885,,,
7.6560000000,957,-3.2961992961,-1.7718544931,-0.8089707352,,,
7.6599999999,957,-5.4549404883,-4.0715840100,-3.2977526999,,,
7.6639999999,958,-6.7680096748,-5.6501659760,-5.6142703796,,,
7.6679999998,958,-6.2049403209,-5.3691328472,-6.4518701792,,,
7.6719999998,959,-4.3206179278,-3.6211944418,-5.7760152769,,,
7.6759999997,959,-2.2224678607,-1.4185881347,-4.3140637637,,,
7.6799999999,960,-0.0844981657,1.0278866056,-2.2869957195,,,
7.6839999999,960,2.2809575171,3.7961069765,0.3302956689,,,
7.6879999998,961,4.2505650906,6.1244997658,2.8319559845,,,
7.6919999998,961,5.1213855506,7.1212095767,4.3127554175,,,
7.6960000000,962,5.4433747723,7.1489229560,4.9707088121,,,
7.7000000000,962,6.1965053718,7.1688519331,5.6815023490,,,
7.7039999999,963,6.9891028142,7.0181985162,6.3869508596,,,
7.7079999999,963,6.5180243572,5.7351325041,6.1447831305,,,
7.7119999998,964,4.5831653774,3.3725533662,4.7404770657,,,
7.7159999998,964,2.2057596268,1.0213605327,2.9834139225,,,
7.7200000000,965,-0.0249460018,-0.8488085959,1.3848833246,,,
7.7239999999,965,-2.2155478925,-2.6364158018,-0.2173122266,,,
7.7279999999,966,-3.9380377608,-4.2778737858,-1.6548299167,,,
7.7319999998,966,-4.3381385820,-5.1160057733,-2.3020840734,,,
7.7359999998,967,-3.6775381905,-5.2487829804,-2.2688605558,,,
7.7399999998,967,-3.3571342793,-5.6508644339,-2.6091431864,,,
7.7439999999,968,-3.9380001127,-6.4949419409,-3.7750173955,,,
7.7479999999,968,-4.3321549011,-6.5504048488,-4.7781475219,,,
7.7519999999,969,-3.5327364992,-4.9267507043,-4.5623998380,,,
7.7559999998,969,-2.0122355387,-2.3836744760,-3.3903014966,,,
7.7599999998,970,-0.6744063038,-0.1554888202,-2.1095598027,,,
7.7639999997,970,0.4734445354,1.5361759275,-0.8536437778,,,
7.7679999999,971,1.6219499471,2.8791412653,0.5347633823,,,
7.7719999999,971,2.1257602273,3.3490934592,1.4687198926,,,
7.7759999998,972,1.4136087311,2.4541414547,1.2406386245,,,
7.7799999998,972,0.2282679910,0.9522292366,0.2955448860,,,
7.7840000000,973,-0.2879101989,0.0406530802,-0.2921907628,,,
7.7879999999,973,-0.1621459852,-0.1913689727,-0.3101058663,,,
7.7919999999,974,-0.0436993967,-0.3149740101,-0.2574150984,,,
7.7959999999,974,0.2726928565,-0.1273077726,-0.0564921215,,,
