Time:250Hz,Epoch,10,14,15,Event Id,Event Date,Event Duration
0.0000000000,0,-0.0000000000,-0.0000000000,-0.0000000000,,,
0.0040000000,0,-0.1162223063,-0.1119616726,-0.1049902792,,,
0.0079999999,1,-0.8168926254,-0.7907551480,-0.7587686804,,,
0.0119999999,1,-2.5244558899,-2.4579460474,-2.4317507862,,,
0.0159999998,2,-4.4167474441,-4.3390816486,-4.4861582854,,,
0.0199999998,2,-4.4767734301,-4.4900523479,-5.0045165086,,,
0.0240000000,3,-1.6942734437,-1.9153468566,-2.7028039323,,,
0.0279999999,3,2.5698476462,2.1054185628,1.5169039369,32769,0.0305138563,0.0000000000
0.0319999999,4,6.1397786541,5.5222229260,5.6199229919,,,
0.0359999998,4,7.9855271582,7.4010755843,8.2968865132,,,
0.0399999998,5,7.9914885227,7.6505717899,9.0876478475,,,
0.0439999998,5,6.0265750702,6.0833787054,7.6455709674,,,
0.0480000000,6,2.4643584980,2.9666080011,4.1339366168,,,
0.0519999999,6,-1.1502653653,-0.2409200616,-0.0690959508,,,
0.0559999999,7,-3.2421252726,-1.9849692955,-3.2131619730,,,
0.0599999998,7,-3.6918159605,-2.1639394637,-4.6462494866,,,
0.0639999998,8,-3.3059654121,-1.7021702380,-4.7323917835,,,
0.0679999997,8,-2.3658857780,-1.0665657774,-3.7131597796,,,
0.0719999999,9,-0.8108905902,-0.2705161824,-1.6910008595,,,
0.0759999999,9,0.5844851962,0.0671286969,0.4414895466,,,
0.0799999998,10,0.6316476064,-0.9370447638,1.3059067224,,,
0.0839999998,10,-0.6536595635,-2.9741831157,0.5547476607,,,
0.0880000000,11,-2.1120610162,-4.6804359275,-0.8979676758,,,
0.0919999999,11,-3.1964992970,-5.4197739152,-2.3626150085,,,
0.0959999999,12,-4.3448257994,-5.7253222634,-3.9663641453,,,
0.0999999999,12,-5.4528401987,-5.7873249566,-5.4693879669,,,
0.1039999998,13,-5.4919218222,-4.9241823445,-5.8083676509,,,
0.1079999998,13,-4.0898209928,-2.9841806316,-4.4660402586,,,
0.1120000000,14,-2.0900021571,-0.8692087409,-2.1996806764,,,
0.1159999999,14,-0.0564765073,0.9064156509,0.1957842415,,,
0.1199999999,15,2.3533669654,2.8364957174,2.7337420562,,,
0.1239999998,15,4.9140330363,4.9430662779,5.1818694386,,,
0.1279999998,16,6.1939204393,6.0242517762,6.3615482090,,,
0.1319999998,16,5.3283722249,5.2821411051,5.4956929975,,,
0.1359999999,17,3.3241716467,3.6262390963,3.4314930229,,,
0.1399999999,17,1.7253188295,2.4724824735,1.6215221919,,,
0.1439999999,18,0.9169224548,2.1250980853,0.5226214969,,,
0.1479999998,18,0.5776313263,2.1795015822,-0.1888328247,,,
0.1519999998,19,0.8103855594,2.6145001287,-0.4874984596,,,
0.1559999997,19,1.6208753394,3.3270519741,-0.1976029162,,,
0.1599999999,20,2.0052994106,3.2699021867,0.0851689503,,,
0.1639999999,20,0.9595751924,1.4485192905,-0.4861812522,,,
0.1679999998,21,-0.9585898973,-1.5046159481,-1.6534967912,,,
0.1719999998,21,-2.3009433760,-3.9542659329,-2.3158909817,,,
0.1760000000,22,-2.6430112917,-5.2056792302,-2.1090070354,,,
0.1799999999,22,-2.6184838166,-5.6751428484,-1.6420256180,,,
0.1839999999,23,-2.3362014836,-5.4337570311,-1.1587905219,,,
0.1879999998,23,-1.1628299876,-3.9670415761,-0.1382047004,,,
0.1919999998,24,0.8406155827,-1.4648673209,1.5077617649,,,
0.1959999998,24,2.5566118667,0.8995313762,2.9006757029,,,
0.2000000000,25,3.2212778318,2.3363790982,3.3192985041,,,
0.2039999999,25,3.0994447204,3.0669056409,2.9605260925,,,
0.2079999999,26,2.4123068643,3.2500137359,2.1127933866,,,
0.2119999998,26,0.8443655261,2.4750616952,0.5781918054,,,
0.2159999998,27,-1.2307885523,0.9815744156,-1.3558026586,,,
0.2199999997,27,-2.2801350217,0.2125997245,-2.3533804700,,,
0.2239999999,28,-1.3877631103,1.1435308378,-1.4915306999,,,
0.2279999999,28,0.4353504683,2.9283114354,0.4045714304,,,
0.2319999998,29,1.6477616426,4.1158336831,1.8460281613,,,
0.2359999998,29,1.9099646538,4.2876435645,2.3819234011,,,
0.2400000000,30,1.4981880166,3.5670438471,2.2714675159,,,
0.2439999999,30,0.1059385893,1.5646987786,1.2863462169,,,
0.2479999999,31,-2.4751638321,-1.8847445412,-0.8955079845,,,
0.2519999999,31,-5.2233479058,-5.6018635986,-3.5519801541,,,
0.2559999998,32,-6.7590224353,-7.9752339839,-5.3984419060,,,
0.2599999998,32,-6.9000869634,-8.6211100812,-6.0022254181,,,
0.2640000000,33,-6.2294514457,-8.0942063969,-5.7057262171,,,
0.2679999999,33,-4.7178652004,-6.5323950850,-4.5134752882,,,
0.2719999999,34,-2.1300492431,-3.8955779780,-2.2924658032,,,
0.2759999998,34,0.6265664658,-1.1544005955,0.0941599554,,,
0.2799999998,35,2.0704365395,0.2519741912,1.1931926664,,,
0.2839999998,35,2.0588020197,0.2300064074,0.7340356460,,,
0.2879999999,36,1.8420003309,0.0917286611,-0.0595126697,,,
0.2919999999,36,2.1590173395,0.6937934375,-0.1500640300,,,
0.2959999999,37,2.5925679293,1.7260867970,0.3704920822,,,
0.2999999998,37,2.9383202137,2.9691375142,1.2340500137,,,
0.3039999998,38,3.7466467780,4.8307632019,2.6509529736,,,
0.3079999997,38,5.0642707042,7.1574873625,4.4597148644,,,
0.3119999999,39,5.9588843399,8.7886756772,5.7061901743,,,
0.3159999999,39,5.8961734285,8.9527346649,5.8135776792,,,
0.3199999998,40,5.4479260611,8.0767347152,5.3383470089,,,
0.3239999998,40,4.9981030765,6.6186517968,4.8608224582,,,
0.3280000000,41,3.8784219115,4.1912355787,3.9580453391,,,
0.3319999999,41,1.6183265877,0.6528926235,2.1076724866,,,
0.3359999999,42,-0.9464036936,-2.9155109326,-0.1383168247,,,
0.3399999999,42,-2.7477770985,-5.2989839862,-1.8117919427,,,
0.3439999998,43,-3.7982989550,-6.4541098922,-2.7429086330,,,
0.3479999998,43,-4.4935249518,-6.8474770279,-3.2039344854,,,
0.3520000000,44,-4.5067789733,-6.3254033561,-2.9749338240,,,
0.3559999999,44,-3.5433328710,-4.7246336488,-1.8666809234,,,
0.3599999999,45,-2.4893178949,-2.9303959446,-0.7354084929,,,
0.3639999998,45,-2.5067901013,-2.0770312030,-0.7810713290,,,
0.3679999998,46,-3.3688238316,-2.0308768718,-1.9617640857,,,
0.3719999997,46,-3.8779085530,-1.7886025599,-3.1156225744,,,
0.3759999999,47,-3.6363562779,-1.1223418803,-3.5578872494,,,
0.3799999999,47,-3.2145512527,-0.6906442947,-3.5596954298,,,
0.3839999998,48,-2.7798059134,-0.6643523028,-3.2939822818,,,
0.3879999998,48,-1.8945638281,-0.4885085091,-2.4794028526,,,
0.3920000000,49,-0.8014397932,-0.1622215135,-1.3997732179,,,
0.3959999999,49,-0.5538758459,-0.4790290287,-1.1407616225,,,
0.3999999999,50,-1.3710127373,-1.5181176344,-2.1356364460,,,
0.4039999999,50,-2.0512230148,-2.0970546017,-3.3732520943,,,
0.4079999998,51,-1.5593601901,-1.3166999593,-3.6510954418,,,
0.4119999998,51,-0.0425696400,0.4697955893,-2.7040091378,,,
0.4160000000,52,2.1704968352,2.7155712153,-0.6012535710,,,
0.4199999999,52,5.1878330746,5.4143892073,2.7993118322,,,
0.4239999999,53,8.3996141447,8.0401163735,6.8961025503,,,
0.4279999998,53,9.9875852073,8.9860710287,9.7897508952,,,
0.4319999998,54,8.7441856978,7.2148146519,9.8768994583,,,
0.4359999998,54,5.6121056969,3.7417391523,7.5750327526,,,
0.4399999999,55,2.4411739172,0.4721648004,4.5662520092,,,
0.4439999999,55,0.0104576405,-1.7527498645,1.8970361811,,,
0.4479999999,56,-1.7126124567,-3.0064854709,-0.1867197981,,,
0.4519999998,56,-2.3383234543,-3.1086079790,-1.2398719380,,,
0.4559999998,57,-1.5452569743,-1.9911205332,-0.8783262020,,,
0.4599999997,57,-0.2443893095,-0.6857613327,0.1875571014,,,
0.4639999999,58,0.1866531729,-0.5197775187,0.6460236383,,,
0.4679999999,58,-0.3897846079,-1.4580280653,0.1399763392,,,
0.4719999998,59,-1.1015087446,-2.3669843000,-0.6540746990,,,
0.4759999998,59,-1.6806892401,-2.7179818605,-1.3973306746,,,
0.4800000000,60,-2.5783134981,-2.8740212785,-2.4453112973,,,
0.4839999999,60,-3.6416670889,-2.8592535483,-3.7760343047,,,
0.4879999999,61,-4.0271999507,-2.1579478540,-4.6771537952,,,
0.4919999999,61,-3.6099889941,-0.9172536645,-4.8565781745,,,
0.4959999998,62,-3.2353640932,-0.1057578495,-4.8686337545,,,
0.4999999998,62,-3.2225312345,-0.0622184073,-4.9575791486,,,
0.5040000000,63,-2.8413644718,-0.0156398148,-4.4572812889,,,
0.5079999999,63,-1.7261895503,0.5031427859,-2.9359028250,,,
0.5119999999,64,-0.5747463328,0.9237799389,-1.0166061034,,,
0.5159999998,64,0.1558853598,0.8742152229,0.6198848393,,,
0.5199999998,65,1.0308706565,0.9887209825,2.1530967648,,,
0.5239999997,65,2.3474562255,1.6930870333,3.7577038406,,,
0.5279999999,66,3.2114278514,2.2229596062,4.7089835449,,,
0.5319999999,66,2.8373998058,1.7701982913,4.3238964310,,,
0.5359999998,67,1.8436748307,0.7665074621,3.1527425331,,,
0.5399999998,67,1.2992658635,0.0919918360,2.2859469783,,,
0.5440000000,68,1.2623293554,-0.2655069127,1.9515384110,,,
0.5480000000,68,1.2472385092,-0.7578255801,1.7072207202,,,
0.5519999999,69,1.3877098091,-1.1469811976,1.5410399419,,,
0.5559999999,69,1.9788921039,-0.9451342909,1.7108217732,,,
0.5599999998,70,2.4425593268,-0.4705646859,1.7986907808,,,
0.5639999998,70,1.9761493551,-0.3334827176,1.0594854356,,,
0.5680000000,71,0.8972227946,-0.2407021464,-0.3369336395,,,
0.5719999999,71,0.1817353780,0.5452732823,-1.4258269665,,,
0.5759999999,72,-0.0747770305,1.8021632266,-1.8199269887,,,
0.5799999998,72,-0.5239666743,2.5670616092,-1.9642863986,,,
0.5839999998,73,-1.0946902146,2.6292015050,-1.9992938030,,,
0.5879999998,73,-1.0177462900,2.5979894363,-1.5026220546,,,
0.5919999999,74,-0.3594261840,2.4723738103,-0.5976015611,,,
0.5959999999,74,-0.1501348688,1.4625790693,-0.1689096476,,,
0.5999999999,75,-0.7155847250,-0.4827236264,-0.5155896671,,,
0.6039999998,75,-1.1875558095,-2.2462190522,-0.8093710561,,,
0.6079999998,76,-1.0603483349,-3.0884702109,-0.4126720832,,,
0.6119999997,76,-0.9579860189,-3.4665623764,0.2071230220,,,
0.6159999999,77,-1.3095252742,-3.7893733840,0.4509654955,,,
0.6199999999,77,-1.4833112878,-3.5204959473,0.5391232690,,,
0.6239999998,78,-1.0139688532,-2.2998785666,0.7272368744,,,
0.6279999998,78,-0.6162382893,-0.9534889457,0.4215701296,,,
0.6320000000,79,-1.0298173968,-0.4341807243,-0.9330566810,,,
0.6359999999,79,-1.7669857112,-0.5537737721,-2.6851372354,,,
0.6399999999,80,-2.0253863394,-0.6991751075,-3.6874425169,,,
0.6439999999,80,-2.0048370170,-0.9988130851,-3.6949854015,,,
0.6479999998,81,-2.2035793599,-1.6916081873,-3.1178488528,,,
0.6519999998,81,-2.1712830281,-2.0436556219,-1.9318443045,,,
0.6560000000,82,-1.2187864089,-1.1383329535,0.0140109554,,,
0.6599999999,82,0.2105422173,0.7023522247,1.9852176613,,,
0.6639999999,83,1.1595651110,2.4364569182,2.9115475442,,,
0.6679999998,83,1.6934623299,3.8013713700,2.8333136221,,,
0.6719999998,84,2.5262791717,5.0864825183,2.6989780209,,,
0.6759999997,84,3.4687094381,5.8123928931,2.8234569775,,,
0.6799999999,85,3.6282800317,5.0590296598,2.6821896633,,,
0.6839999999,85,3.0271271711,3.0621741802,2.2214336353,,,
0.6879999998,86,2.6374514984,1.1608720578,2.1094505774,,,
0.6919999998,86,2.7472555589,0.0537758940,2.4358499781,,,
0.6960000000,87,2.6206194346,-0.6740195629,2.3428709043,,,
0.7000000000,87,1.9439333206,-1.2114848224,1.3584582007,,,
0.7039999999,88,1.2983759711,-1.0647361298,0.0658958785,,,
0.7079999999,88,0.8585123266,-0.3175858309,-1.0160896619,,,
0.7119999998,89,-0.1013948842,-0.0851482400,-2.2078986171,,,
0.7159999998,89,-1.7975842170,-1.0022101910,-3.6711001479,,,
0.7200000000,90,-3.1860508936,-2.2566062380,-4.5808341470,,,
0.7239999999,90,-3.4160627202,-2.8873852542,-4.1813637037,,,
0.7279999999,91,-2.9997909935,-3.0751118481,-2.9301745284,,,
0.7319999998,91,-2.6543491574,-3.2620038282,-1.6770056827,,,
0.7359999998,92,-2.0244398441,-2.9859209249,-0.4096271477,,,
0.7399999998,92,-0.6373688990,-1.7257612203,1.1686070910,,,
0.7439999999,93,0.7957252897,-0.1191343063,2.4757055679,,,
0.7479999999,93,1.2792406333,0.8664959401,2.6555946457,,,
0.7519999999,94,1.0604944643,1.3935583251,1.9398225417,,,
0.7559999998,94,1.0231682741,2.2070886524,1.2681541880,,,
0.7599999998,95,1.1222955796,3.1257718743,0.8541060229,,,
0.7639999997,95,0.7406672565,3.3403849945,0.2904605388,,,
0.7679999999,96,0.1557175708,2.8693327037,-0.1612497983,,,
0.7719999999,96,0.1958504127,2.3996425375,0.2841974160,,,
0.7759999998,97,0.6194114225,1.8456432793,1.4485410706,,,
0.7799999998,97,0.2608864949,0.4009649769,2.0788645819,,,
0.7840000000,98,-1.1488875028,-1.8941007728,1.4765053253,,,
0.7879999999,98,-2.5682725159,-3.8586332741,0.2110704337,,,
0.7919999999,99,-3.1783496174,-4.6778431491,-1.0147784387,,,
0.7959999999,99,-3.1087790975,-4.5953636483,-2.1241230789,,,
0.7999999998,100,-2.4295509956,-3.8488305758,-2.9175095187,,,
0.8039999998,100,-0.7633971388,-2.1550225849,-2.7123512988,,,
0.8080000000,101,1.5690879024,0.2288258589,-1.4305883849,,,
0.8119999999,101,3.2177779105,2.0871387492,-0.1585963046,,,
0.8159999999,102,3.3256585996,2.6025564023,0.1289762694,,,
0.8199999998,102,2.4530800559,2.2499946334,-0.2961234888,,,
0.8239999998,103,1.4009234581,1.7387484269,-0.7107204478,,,
0.8279999997,103,0.1328479694,0.9981692099,-1.0808350769,,,
0.8319999999,104,-1.3723656095,-0.0293366270,-1.5571142891,,,
0.8359999999,104,-2.2155001475,-0.5177293013,-1.5495900883,,,
0.8399999999,105,-1.6361329389,0.2360651739,-0.4275572159,,,
0.8439999998,105,-0.2991287851,1.5552252888,1.2466168260,,,
0.8480000000,106,0.5795688408,2.2186233133,2.2673538111,,,
0.8520000000,106,0.8378682580,2.0591109816,2.3197104711,,,
0.8559999999,107,1.0074389134,1.6644596536,1.9483127330,,,
0.8599999999,107,0.9548708136,1.0353839599,1.3155258174,,,
0.8639999998,108,0.2270394104,-0.1588205832,0.2125486887,,,
0.8679999998,108,-0.6290163229,-1.3416677928,-0.8345155458,,,
0.8720000000,109,-0.5202882901,-1.4566687450,-0.7907122727,,,
0.8759999999,109,0.5045220862,-0.6059733932,0.3646139820,,,
0.8799999999,110,1.2931225143,-0.0187641913,1.4430090559,,,
0.8839999998,110,1.3042687518,-0.3184635999,1.6225122756,,,
0.8879999998,111,1.0345896874,-1.0007531966,1.2074436605,,,
0.8919999998,111,0.6934659479,-1.6968193831,0.6062642040,,,
0.8959999999,112,-0.1489128768,-2.6183280193,-0.2874319548,,,
0.8999999999,112,-1.2783274944,-3.4366546252,-1.2495741002,,,
0.9039999999,113,-1.5702550136,-3.0530883422,-1.3908824942,,,
0.9079999998,113,-0.5956510813,-1.1290118621,-0.3828880098,,,
0.9119999998,114,0.6296000817,1.1850677982,0.8304175645,,,
0.9159999997,114,1.1030659023,2.6813695477,1.2361638276,,,
0.9199999999,115,0.9906906468,3.3122690712,0.9182723545,,,
0.9239999999,115,0.6895657881,3.3776692166,0.3748195912,,,
0.9279999998,116,-0.1113159838,2.6113662895,-0.4687990163,,,
0.9319999998,116,-1.4900467233,1.0312807368,-1.6676580469,,,
0.9360000000,117,-2.4274742468,-0.2488003904,-2.4375930127,,,
0.9399999999,117,-2.0832081303,-0.2685279833,-2.0720416515,,,
0.9439999999,118,-1.2301211386,0.3066781545,-1.2227269983,,,
0.9479999999,118,-1.2121526049,0.1029241377,-1.1234061247,,,
0.9519999998,119,-2.0069728613,-1.0378664550,-1.8208305579,,,
0.9559999998,119,-2.4932616098,-2.1457861936,-2.2646742247,,,
0.9600000000,120,-2.1443339688,-2.6635495734,-1.8925391874,,,
0.9639999999,120,-1.2055457837,-2.6785381912,-0.9728753454,,,
0.9679999999,121,0.3673495289,-1.9874777191,0.4170437573,,,
0.9719999998,121,2.6871215397,-0.3353220242,2.4413266449,,,
0.9759999998,122,4.8435278690,1.5044160687,4.5009905534,,,
0.9799999997,122,5.5122446285,2.2660005013,5.4495127877,,,
0.9839999999,123,4.6791135625,1.8758452692,5.0187105147,,,
0.9879999999,123,3.4664865731,1.3678124949,3.9543038557,,,
0.9919999999,124,2.3037223468,1.1269589409,2.6215555360,,,
0.9959999998,124,0.6419541447,0.5386127398,0.6373450694,,,
1.0000000000,125,-1.4278761588,-0.4807999322,-1.8318766101,,,
1.0040000000,125,-2.7069583334,-0.9612831229,-3.5570684140,,,
1.0079999999,126,-2.5014546224,-0.3452791764,-3.6362636437,,,
1.0119999999,126,-1.5242333339,0.6688232933,-2.5567146774,,,
1.0159999998,127,-0.6273163086,1.3353416634,-1.2759767562,,,
1.0199999998,127,0.2230533337,1.8444667987,-0.0947065663,,,
1.0240000000,128,0.9899061765,2.3524269833,0.8148499793,,,
1.0279999999,128,0.7935334365,2.1013115183,0.7057560777,,,
1.0319999999,129,-0.8056075275,0.5655131963,-0.7766324151,,,
1.0359999998,129,-2.6862299507,-1.3700527999,-2.5722166776,,,
1.0399999998,130,-3.4788839103,-2.4975628815,-3.2835360744,,,
1.0439999998,130,-3.2453496380,-2.8557242889,-2.8116373760,,,
1.0480000000,131,-2.8036772459,-3.1588341774,-1.9677576853,,,
1.0519999999,131,-2.1740796290,-3.3377307230,-1.0066204703,,,
1.0559999999,132,-0.9118454068,-2.8181341228,0.3351266326,,,
1.0599999998,132,0.5958021616,-1.7888529288,1.6996662960,,,
1.0639999998,133,1.5193296564,-0.9372038156,2.2897757730,,,
1.0679999997,133,2.0054512142,-0.1360968098,2.1851472958,,,
1.0719999999,134,2.8594702600,1.2988854564,2.2657378369,,,
1.0759999999,134,3.8932779475,3.0619602710,2.6791337724,,,
1.0799999998,135,3.9566296103,3.8946719630,2.5762074339,,,
1.0839999998,135,2.7285833938,3.3482025026,1.6297577383,,,
1.0880000000,136,1.1591548617,2.2623778186,0.6158408129,,,
1.0919999999,136,-0.1024197892,1.2491463918,0.0661968741,,,
1.0959999999,137,-1.3847318361,0.0026168474,-0.5057113666,,,
1.0999999999,137,-2.7064602981,-1.4613774066,-1.4530201518,,,
1.1039999998,138,-3.1491366607,-2.1723242176,-2.1149234422,,,
1.1079999998,138,-2.2296813892,-1.5426474944,-1.8546041491,,,
1.1120000000,139,-0.8275270680,-0.3423422853,-1.1412144465,,,
1.1159999999,139,0.0370578201,0.4211441780,-0.7620972104,,,
1.1199999999,140,0.4150929807,0.7098281012,-0.6592584810,,,
1.1239999998,140,0.6771622837,0.8025424170,-0.3867044651,,,
1.1279999998,141,0.5544482643,0.3995411165,-0.0674075904,,,
1.1319999998,141,-0.1368480199,-0.6615706101,0.0085862051,,,
1.1359999999,142,-0.6548929819,-1.5562761605,0.2041208609,,,
1.1399999999,142,-0.2609690106,-1.3936279561,0.9788847379,,,
1.1439999999,143,0.6045505932,-0.4941602052,1.8680740709,,,
1.1479999998,143,1.0766105986,0.2275202110,2.0105829296,,,
1.1519999998,144,1.2627007116,0.6853093578,1.4833667669,,,
1.1559999997,144,1.8096300786,1.3606921712,1.1303238441,,,
1.1599999999,145,2.5151224436,2.0390098620,1.2051609366,,,
1.1639999999,145,2.5595797611,2.0262835330,1.1897341301,,,
1.1679999998,146,1.8531080185,1.3957761688,0.8706886955,,,
1.1719999998,146,0.9289780267,0.7842621934,0.4851118090,,,
1.1760000000,147,-0.3145256976,0.0877182648,-0.2358048818,,,
1.1799999999,147,-2.4299752608,-1.3574039729,-1.9736058640,,,
1.1839999999,148,-4.9806188224,-3.2960497659,-4.4992585089,,,
1.1879999998,148,-6.6109703421,-4.5429796901,-6.4853517861,,,
1.1919999998,149,-6.7531594592,-4.6249611904,-6.9985716791,,,
1.1959999998,149,-6.0352026468,-4.2003117899,-6.2356081434,,,
1.2000000000,150,-4.7424459956,-3.5427080073,-4.4442490234,,,
1.2039999999,150,-2.2421919696,-1.9263626915,-1.2806585954,,,
1.2079999999,151,1.4874805440,0.8773652157,3.0405740685,,,
1.2119999998,151,5.0026895496,3.6778007836,6.9450290741,,,
1.2159999998,152,6.8594505263,5.2132264010,8.7838057118,,,
1.2199999997,152,7.0061179942,5.4896120586,8.3504225949,,,
1.2239999999,153,6.0568353904,5.0722184060,6.4596344184,,,
1.2279999999,153,4.2059965007,4.0030147970,3.7565839088,,,
1.2319999998,154,1.7658135544,2.3218894191,0.8054294627,,,
1.2359999998,154,-0.1920378842,0.7748239650,-1.3954496434,,,
1.2400000000,155,-0.9265437802,-0.1152681632,-2.2039092314,,,
1.2439999999,155,-1.0912216424,-0.9904959179,-2.2753308411,,,
1.2479999999,156,-1.6191474246,-2.5504521870,-2.6651298989,,,
1.2519999999,156,-2.1754079816,-4.0960493088,-3.2885185572,,,
1.2559999998,157,-1.8257120856,-4.3189435230,-3.2419199456,,,
1.2599999998,157,-0.6767413783,-3.1009152791,-2.3444148001,,,
1.2640000000,158,0.3782439697,-1.4066085409,-1.2688749227,,,
1.2679999999,158,1.1389497951,0.2253813794,-0.3146721617,,,
1.2719999999,159,1.9756547775,1.8125288788,0.7474195250,,,
1.2759999998,159,2.4526273667,2.7872703748,1.5810583225,,,
1.2799999998,160,1.5630722479,2.2204742797,1.3089230436,,,
1.2839999998,160,-0.5439005395,0.3905811522,-0.0585766584,,,
1.2879999999,161,-2.4390027841,-1.1810416003,-1.3434313291,,,
1.2919999999,161,-3.2626177594,-1.6033355722,-1.7445615894,,,
1.2959999999,162,-3.4390616807,-1.3791037422,-1.6377360436,,,
1.2999999998,162,-3.2917095213,-1.0292886763,-1.4181607790,,,
1.3039999998,163,-2.3272563986,-0.2507539638,-0.6439705920,,,
1.3079999997,163,-0.4696058738,1.0149697338,0.9745187203,,,
1.3119999999,164,1.2548997563,1.9123003651,2.6894431865,,,
1.3159999999,164,2.0581612265,1.8760364934,3.6609750861,,,
1.3199999998,165,2.3605185780,1.4999286445,3.9826946423,,,
1.3239999998,165,2.6391655836,1.3952298300,3.9292122775,,,
1.3280000000,166,2.3926031665,1.1517393024,3.0341447859,,,
1.3319999999,166,1.2171495332,0.3463750355,0.9604077675,,,
1.3359999999,167,-0.0430341587,-0.3088211754,-1.3660774254,,,
1.3399999999,167,-0.3333118224,0.0876452224,-2.5951424225,,,
1.3439999998,168,0.1400739570,1.1741945150,-2.5135638074,,,
1.3479999998,168,0.5345149854,1.8913547543,-1.8273981204,,,
1.3520000000,169,0.7772475293,1.9786880985,-0.8870885372,,,
1.3559999999,169,1.1683059496,1.7976946060,0.2543247300,,,
1.3599999999,170,1.1598840519,1.1174520195,0.8893743464,,,
1.3639999998,170,-0.1001259304,-0.6165566271,0.0836506606,,,
1.3679999998,171,-2.2456678403,-2.9655776120,-1.8973368368,,,
1.3719999997,171,-3.9773154926,-4.7289375422,-3.6838946063,,,
1.3759999999,172,-4.7729774197,-5.5334810921,-4.4580815890,,,
1.3799999999,172,-5.1038159394,-6.0163314828,-4.5153062126,,,
1.3839999998,173,-4.9970596987,-6.3451418687,-4.0666802154,,,
1.3879999998,173,-3.7759602950,-5.8242538212,-2.6900501976,,,
1.3920000000,174,-1.4831671481,-4.2379836004,-0.4013102246,,,
1.3959999999,174,0.7740737051,-2.3367750879,1.8451987242,,,
1.3999999999,175,2.3455798932,-0.5615826992,3.3302455253,,,
1.4039999999,175,3.7035943569,1.5405009931,4.3305882209,,,
1.4079999998,176,5.0843089118,4.0687641902,5.1463724304,,,
1.4119999998,176,5.6645945300,6.0356845041,5.2812920111,,,
1.4160000000,177,4.8384667978,6.6215308215,4.3231080452,,,
1.4199999999,177,3.2877297202,6.2384010611,2.8695588556,,,
1.4239999999,178,1.9284398778,5.5617878177,1.7209111155,,,
1.4279999998,178,0.7416423548,4.4522742541,0.7907219133,,,
1.4319999998,179,-0.4312342269,2.8014388305,-0.2886257270,,,
1.4359999998,179,-0.9332130567,1.5152819204,-1.1233092339,,,
1.4399999999,180,-0.2749198493,1.4602415501,-1.1484592734,,,
1.4439999999,180,0.7156920948,2.0912336735,-0.7519666586,,,
1.4479999999,181,0.8845739022,2.2308692433,-0.7554702700,,,
1.4519999998,181,0.2900768383,1.6326003488,-1.1390557945,,,
1.4559999998,182,-0.3343590494,0.7010432899,-1.3154624386,,,
1.4599999997,182,-1.0437244678,-0.7416287797,-1.3745046751,,,
1.4639999999,183,-2.3183851381,-3.0749265898,-1.9064165618,,,
1.4679999999,183,-3.6117851273,-5.5161679989,-2.6601844834,,,
1.4719999998,184,-3.6944873384,-6.5223017992,-2.5812488678,,,
1.4759999998,184,-2.4551163242,-5.6839461924,-1.3975290730,,,
1.4800000000,185,-1.0508420090,-4.0504493293,-0.0631860979,,,
1.4839999999,185,-0.1780108721,-2.4942273004,0.6670980365,,,
1.4879999999,186,0.4844029815,-1.0398484921,1.0075717518,,,
1.4919999999,186,0.9686484233,0.0363206831,1.1409619781,,,
1.4959999998,187,0.6150340804,-0.0669974801,0.6216720992,,,
1.4999999998,187,-0.5584290357,-1.2691302583,-0.6004285347,,,
1.5040000000,188,-1.3678525207,-2.1378364746,-1.5555042609,,,
1.5079999999,188,-0.9943422750,-1.5356940571,-1.4176584636,,,
1.5119999999,189,0.0372797953,0.1716628667,-0.5446910575,,,
1.5159999998,189,0.9811495457,2.0592601575,0.2970306827,,,
1.5199999998,190,1.8796085150,3.7548741268,0.9830165621,,,
1.5239999997,190,2.7598445540,4.9706185550,1.6090932518,,,
1.5279999999,191,2.9033799890,4.9818457885,1.7757628159,,,
1.5319999999,191,1.8600209702,3.5469475335,1.1905582747,,,
1.5359999998,192,0.3839565016,1.6599945412,0.4493490376,,,
1.5399999998,192,-0.5948665279,0.4293677082,0.2697141575,,,
1.5440000000,193,-1.2414905871,-0.2740094004,0.3376558130,,,
1.5480000000,193,-2.0487560659,-1.1312920125,-0.0971752169,,,
1.5519999999,194,-2.4614925448,-1.9017181312,-0.7777033391,,,
1.5559999999,194,-1.5306978858,-1.7921694244,-0.6757838770,,,
1.5599999998,195,0.4294653821,-0.9465870399,0.4417393920,,,
1.5639999998,195,2.0998830135,-0.3126792679,1.7511137683,,,
1.5680000000,196,2.8434646855,-0.1781968317,2.6352317369,,,
1.5719999999,196,2.9150865962,-0.0742856612,3.0912866431,,,
1.5759999999,197,2.2315238316,-0.0498573036,2.8378851958,,,
1.5799999998,197,0.3646705313,-0.7270316633,1.2684726192,,,
1.5839999998,198,-2.1701175189,-1.9709294047,-1.3558062436,,,
1.5879999998,198,-3.9780335135,-2.7540857315,-3.7229089120,,,
1.5919999999,199,-4.4020826194,-2.5900641599,-4.8740610128,,,
1.5959999999,199,-3.9460084001,-1.9673419777,-4.9183403356,,,
1.5999999999,200,-2.9466218285,-1.1202562903,-4.1218075297,,,
1.6039999998,200,-1.1117023994,0.4107085087,-2.3590041885,,,
1.6079999998,201,1.2412598039,2.5165420829,0.0217421797,,,
1.6119999997,201,2.7735744497,3.9678038087,1.7827419598,,,
1.6159999999,202,2.6729546765,3.8345990936,2.0323606801,,,
1.6199999999,202,1.6073920941,2.5416294647,1.2081553442,,,
1.6239999998,203,0.4806994621,0.8819510237,0.1908303673,,,
1.6279999998,203,-0.6889079210,-1.0082708600,-0.8097653026,,,
1.6320000000,204,-1.8829380398,-2.9043605904,-1.7586490932,,,
1.6359999999,204,-2.2034489942,-3.7335775020,-1.9934629827,,,
1.6399999999,205,-1.0003621485,-2.7004482563,-0.9612248487,,,
1.6439999999,205,0.8701512222,-0.5869588687,0.6948132768,,,
1.6479999998,206,2.0399124130,1.1426559158,1.8098884265,,,
1.6519999998,206,2.3467936086,2.0848570951,2.2020611771,,,
1.6560000000,207,2.4749420781,2.6795776269,2.5121508036,,,
1.6599999999,207,2.4347183427,2.7653772776,2.7967036675,,,
1.6639999999,208,1.7243686489,1.7366666846,2.4689676709,,,
1.6679999998,208,0.6542569390,-0.0740458148,1.5651759316,,,
1.6719999998,209,0.0906177081,-1.5496694262,0.8296868204,,,
1.6759999997,209,-0.0135798569,-2.3030944750,0.4409928969,,,
1.6799999999,210,-0.4836486342,-2.7892552983,-0.1702749357,,,
1.6839999999,210,-1.2703512225,-2.8782014321,-0.9917892323,,,
1.6879999998,211,-1.2711898424,-1.6678672027,-1.0727945725,,,
1.6919999998,211,-0.1015363447,0.9081241651,0.0060546745,,,
1.6960000000,212,1.2226064958,3.5102827878,1.3342911750,,,
1.7000000000,212,1.8342939144,4.9941233996,1.9707993360,,,
1.7039999999,213,2.0096087069,5.4932539024,2.0702071902,,,
1.7079999999,213,2.0337988427,5.3396431535,2.0081117131,,,
1.7119999998,214,1.3706116714,4.1290921577,1.3996934593,,,
1.7159999998,214,-0.1946777915,1.7236662443,-0.0804898780,,,
1.7200000000,215,-1.7328881834,-0.8933998943,-1.7584504546,,,
1.7239999999,215,-2.4470805772,-2.7579562109,-2.8333451133,,,
1.7279999999,216,-2.8028247373,-4.0704294438,-3.4958360578,,,
1.7319999998,216,-3.4366116552,-5.2820275028,-4.2060168221,,,
1.7359999998,217,-3.8260658510,-5.8602715408,-4.4802568428,,,
1.7399999998,217,-3.1373690174,-5.0596297765,-3.5086738659,,,
1.7439999999,218,-1.7299168943,-3.3430825281,-1.6227564684,,,
1.7479999999,218,-0.6616392738,-1.8908010031,-0.0608073734,,,
1.7519999999,219,-0.1844564163,-1.0806314997,0.5427740357,,,
1.7559999998,219,0.1126925044,-0.5447167968,0.4650416953,,,
1.7599999998,220,0.1548218853,-0.2926786118,-0.0202023846,,,
1.7639999997,220,-0.3002647993,-0.5225470720,-0.7228419150,,,
1.7679999999,221,-0.5347691965,-0.6191523301,-0.8513557112,,,
1.7719999999,221,0.5063750698,0.3107879183,0.4753469483,,,
1.7759999998,222,2.4928169552,1.9303404941,2.7939255137,,,
1.7799999998,222,3.8976059171,2.9299168196,4.4291380877,,,
1.7840000000,223,3.9961483557,2.8868951269,4.4013944475,,,
1.7879999999,223,3.4602328656,2.6973374320,3.3094651835,,,
1.7919999999,224,2.8560848220,2.9768095175,2.0617603901,,,
1.7959999999,224,1.9183820879,3.2485168736,0.8037573289,,,
1.7999999998,225,0.6959297227,3.1122758331,-0.3983811659,,,
1.8039999998,225,0.0849823493,3.0292393178,-0.8898254699,,,
1.8080000000,226,0.5303138480,3.2948930425,-0.2783153785,,,
1.8119999999,226,1.2396205146,3.2499965941,0.7896433572,,,
1.8159999999,227,1.3827160292,2.2812367601,1.4757940923,,,
1.8199999998,227,1.0610663314,0.7115861911,1.6897668788,,,
1.8239999998,228,0.3380823487,-1.0947781803,1.4421339222,,,
1.8279999997,228,-1.5379647916,-3.5423921634,0.0979601744,,,
1.8319999999,229,-4.8189925045,-6.6976856101,-2.6575614630,,,
1.8359999999,229,-8.0337948037,-9.1924581464,-5.6740694682,,,
1.8399999999,230,-9.2650454593,-9.4084244318,-7.2429251614,,,
1.8439999998,230,-8.1080669205,-7.2957388486,-6.8486108779,,,
1.8480000000,231,-5.4406258596,-4.0719276908,-5.1549548321,,,
1.8520000000,231,-1.9726369714,-0.6769100057,-2.7130965668,,,
1.8559999999,232,1.7790727698,2.3964506782,0.1917908920,,,
1.8599999999,232,4.6544952225,4.3132560756,2.6981831656,,,
1.8639999998,233,5.5227984626,4.4139760513,3.7224655446,,,
1.8679999998,233,4.8004737094,3.4750101601,3.3584080091,,,
1.8720000000,234,4.0447973220,3.1326831813,2.8551568152,,,
1.8759999999,234,3.9550663833,3.8612789726,2.9462955817,,,
1.8799999999,235,3.9397864717,4.6257749937,3.1909711600,,,
1.8839999998,235,3.6350987396,4.6158986232,3.1780304561,,,
1.8879999998,236,3.4354213022,4.0703255239,3.2077375133,,,
1.8919999998,236,3.2810415468,3.1892630797,3.3291103779,,,
1.8959999999,237,2.3341594108,1.6068465081,2.8350793989,,,
1.8999999999,237,0.3798888473,-0.5535392459,1.3719928134,,,
1.9039999999,238,-1.6528267434,-2.3329466251,-0.3808577915,,,
1.9079999998,238,-3.1206317810,-3.2967705500,-1.7822916163,,,
1.9119999998,239,-4.4405899067,-4.1484890158,-3.0827868656,,,
1.9159999997,239,-5.7691867566,-5.2720449772,-4.4784227698,,,
1.9199999999,240,-6.1079524738,-5.7367358428,-5.1933354939,,,
1.9239999999,240,-4.6821125269,-4.6422068983,-4.4664246776,,,
1.9279999998,241,-2.2391620312,-2.5162053481,-2.7932859802,,,
1.9319999998,241,-0.0110359248,-0.4476314997,-1.2316584819,,,
1.9360000000,242,1.7249119163,1.2869863061,-0.0513431155,,,
1.9399999999,242,3.0870028725,2.7289857651,0.9850843552,,,
1.9439999999,243,3.5205035755,3.2317379619,1.5864711757,,,
1.9479999999,243,2.5397934711,2.2441448860,1.3038430598,,,
1.9519999998,244,0.9614106998,0.6159030310,0.6085638423,,,
1.9559999998,244,0.1140853125,-0.1747031192,0.4645517630,,,
1.9600000000,245,0.1168566760,0.1197985316,0.9360910069,,,
1.9639999999,245,0.1134045046,0.5755755064,1.2793862046,,,
1.9679999999,246,-0.0965755577,0.7410471733,1.3290082663,,,
1.9719999998,246,0.0170980008,0.9265897668,1.6402038788,,,
1.9759999998,247,0.3537627624,1.0232098402,2.2114193363,,,
1.9799999997,247,0.2128818773,0.5011236183,2.2779302221,,,
1.9839999999,248,-0.2412073620,-0.2658820818,1.6257170521,,,
1.9879999999,248,0.0124942160,-0.0884454382,0.9617850704,,,
1.9919999999,249,1.0799436563,1.2201980017,0.6041597973,,,
1.9959999998,249,1.7234756262,2.3321327123,-0.0753638721,,,
2.0000000000,250,1.1649312253,2.1908078835,-1.3587240002,,,
2.0040000000,250,0.1153714956,1.2032437172,-2.3612271426,,,
2.0079999999,251,-0.5353030064,0.1508753389,-2.2297092299,,,
2.0119999999,251,-0.8935718383,-0.9306697211,-1.3389097438,,,
2.0159999998,252,-1.2441723128,-2.0561806031,-0.5369939492,,,
2.0199999998,252,-1.1686572990,-2.5339463091,0.0550014998,,,
2.0240000000,253,-0.4102820816,-1.9020574377,0.6307065673,,,
2.0279999999,253,0.2515566580,-0.8892364189,0.7664632485,,,
2.0319999999,254,0.0118960292,-0.4456776435,-0.0226654663,,,
2.0359999998,254,-0.7455336706,-0.4313173609,-1.2272628093,,,
2.0399999998,255,-1.2278688626,-0.2708263533,-1.9153301716,,,
2.0439999998,255,-1.5619959898,-0.2643315168,-2.0485672281,,,
2.0480000000,256,-2.2557684225,-1.0537069657,-2.2235754789,,,
2.0519999999,256,-2.8916534818,-2.2305143761,-2.3988877741,,,
2.0559999999,257,-2.5710895248,-2.6982659592,-1.9600474369,,,
2.0599999998,257,-1.3528536617,-2.2023029470,-0.9330201280,,,
2.0639999998,258,-0.0761009063,-1.3653083271,-0.0428245065,,,
2.0679999997,258,1.0401015698,-0.3839385050,0.4946971318,,,
2.0719999999,259,2.3995590928,1.0604297681,1.1857230037,,,
2.0759999999,259,3.7260886819,2.5956935262,2.1060073773,,,
2.0799999998,260,4.0766316762,3.1804366601,2.6006631357,,,
2.0839999998,260,3.3352705418,2.6181132769,2.4528452264,,,
2.0880000000,261,2.4621052880,1.8885472326,2.3287735992,,,
2.0919999999,261,1.9627756023,1.6252704263,2.6173757398,,,
2.0959999999,262,1.3145348998,1.3865785855,2.7872561806,,,
2.0999999999,262,0.2468228259,0.8037784619,2.3776487734,,,
2.1039999998,263,-0.6731622452,0.2684016223,1.6897599608,,,
2.1079999998,263,-1.2322689560,-0.0537604840,0.9394616196,,,
2.1120000000,264,-2.1040377530,-0.7377564470,-0.3409917803,,,
2.1159999999,264,-3.4537216066,-1.8865218221,-2.2921398469,,,
2.1199999999,265,-4.1304534423,-2.4353458953,-3.9196594888,,,
2.1239999998,265,-3.1691073915,-1.5594371023,-4.1951910503,,,
2.1279999998,266,-1.1845802630,0.0611443135,-3.3605892918,,,
2.1319999998,266,0.6071619263,1.2298846831,-2.3108742752,,,
2.1359999999,267,1.8861641035,1.7184012633,-1.2719112629,,,
2.1399999999,267,2.8312359238,1.9198850009,0.0130501381,,,
2.1439999999,268,3.0549845646,1.7520753101,1.2542701370,,,
2.1479999998,268,2.0921322415,0.9463578955,1.7901914936,,,
2.1519999998,269,0.4882312543,-0.0141882717,1.6183462359,,,
2.1559999997,269,-0.7228613460,-0.3472467726,1.3194644877,,,
2.1599999999,270,-1.3579578157,-0.1665808362,1.0430040501,,,
2.1639999999,270,-1.8387306467,-0.1766761026,0.5373800960,,,
2.1679999998,271,-1.9380718607,-0.3786466994,0.1185159429,,,
2.1719999998,271,-1.0710216606,-0.2586703440,0.4701120976,,,
2.1760000000,272,0.3001220339,-0.1058982358,1.3566424407,,,
2.1799999999,272,0.9191620535,-0.8107617660,1.6505907535,,,
2.1839999999,273,0.4971325822,-2.2712501113,0.9110113923,,,
2.1879999998,273,-0.0181538048,-3.2673928603,-0.0859125306,,,
2.1919999998,274,-0.1005065873,-3.1876981891,-0.7088569758,,,
2.1959999998,274,-0.3039981023,-2.7080283662,-1.3062752528,,,
2.2000000000,275,-0.9113061923,-2.3785713322,-2.1794561808,,,
2.2039999999,275,-1.2138324023,-1.7479833334,-2.7639331147,,,
2.2079999999,276,-0.7518247103,-0.4875171512,-2.5708837312,,,
2.2119999998,276,-0.0761083775,0.8022445337,-2.0195498194,,,
2.2159999998,277,0.4592817441,1.7013347715,-1.5001875443,,,
2.2199999997,277,1.4955937795,2.8066960998,-0.4877438384,,,
2.2239999999,278,3.3698539293,4.5455011801,1.4656583697,,,
2.2279999999,278,5.0213748384,6.0558020727,3.5742181146,,,
2.2319999998,279,5.1523114834,6.1953383455,4.6024415454,,,
2.2359999998,279,3.7193723386,4.9506442491,4.2741751944,,,
2.2400000000,280,1.4261450997,2.9502538398,3.0489659923,,,
2.2439999999,280,-1.4688862627,0.2933285908,1.0447355093,,,
2.2479999999,281,-4.7571852253,-3.0243730034,-1.7466359221,,,
2.2519999999,281,-7.3088040003,-6.0101970373,-4.4619757979,,,
2.2559999998,282,-7.8079454003,-7.2525984016,-5.7400799873,,,
2.2599999998,282,-6.3048663810,-6.4896108265,-5.1671758271,,,
2.2640000000,283,-3.9549815889,-4.5705227986,-3.4461532787,,,
2.2679999999,283,-1.4059190632,-2.0505498117,-1.1569723990,,,
2.2719999999,284,1.3510929076,0.9436525348,1.5540218100,,,
2.2759999998,284,3.7021496287,3.5480133365,3.9763445553,,,
2.2799999998,285,4.4845492399,4.3459281206,4.8287208357,,,
2.2839999998,285,3.5722686918,3.0697406935,3.7346489474,,,
2.2879999999,286,2.1320104854,0.9801985696,1.7508280407,,,
2.2919999999,286,1.0044855929,-0.7597490988,0.0000466855,,,
2.2959999999,287,-0.0185301415,-2.0223348623,-1.3276502969,,,
2.2999999998,287,-0.9750758308,-2.7404909083,-2.2003494025,,,
2.3039999998,288,-1.0656015832,-2.2700369709,-2.0428855477,,,
2.3079999997,288,0.1099777141,-0.4528061860,-0.6133322010,,,
2.3119999999,289,1.6884245108,1.6659283195,1.1978068865,,,
2.3159999999,289,2.6858002597,3.0068017727,2.2998883876,,,
2.3199999998,290,3.1337574577,3.6062029830,2.5808059648,,,
2.3239999998,290,3.3329222453,3.8772547569,2.4326154197,,,
2.3280000000,291,2.9078496024,3.5586791438,1.7733986076,,,
2.3319999999,291,1.5872516748,2.3489321251,0.4792606187,,,
2.3359999999,292,0.1318723763,0.8637783081,-0.7751761476,,,
2.3399999999,292,-0.6091905747,-0.1144004552,-1.1877767554,,,
2.3439999998,293,-0.9325268353,-0.7753118890,-0.9898367361,,,
2.3479999998,293,-1.5073726418,-1.6165231192,-0.9492041571,,,
2.3520000000,294,-2.0160087095,-2.2104182825,-1.0620911542,,,
2.3559999999,294,-1.7905713860,-1.8461382663,-0.7915171613,,,
2.3599999999,295,-1.3272401150,-1.0270993466,-0.3561691671,,,
2.3639999998,295,-1.8040214442,-1.0366016874,-0.6068866056,,,
2.3679999998,296,-3.2402967585,-2.1030484738,-1.5929376714,,,
2.3719999997,296,-4.4197761208,-3.1910734412,-2.3742638894,,,
2.3759999999,297,-4.6408174122,-3.6091196574,-2.4556623752,,,
2.3799999999,297,-4.2586753196,-3.5802753085,-2.3167252236,,,
2.3839999998,298,-3.4214240156,-3.1193449417,-2.2258992120,,,
2.3879999998,298,-1.7045287218,-1.7292414352,-1.6731020384,,,
2.3920000000,299,0.6576784832,0.3902622057,-0.4435970161,,,
2.3959999999,299,2.5258316557,2.0912016727,0.8200461264,,,
2.3999999999,300,3.3642135186,2.7771534768,1.6778091331,,,
2.4039999999,300,3.8638632757,3.0936162913,2.5343518922,,,
2.4079999998,301,4.5381615517,3.5946364208,3.6027703410,,,
2.4119999998,301,4.8035093406,3.7797139863,4.1281377829,,,
2.4160000000,302,4.1368432611,3.1546603351,3.4318881962,,,
2.4199999999,302,3.1028611267,2.2660089161,2.0113379111,,,
2.4239999999,303,2.3411826070,1.7741575767,0.7524223331,,,
2.4279999998,303,1.4631679714,1.3251082051,-0.2952892669,,,
2.4319999998,304,0.0000109336,0.3631957813,-1.4166986276,,,
2.4359999998,304,-1.3927138553,-0.6712777573,-2.1664066442,,,
2.4399999999,305,-1.8617581754,-1.0922913100,-1.9663827954,,,
2.4439999999,305,-1.7755808735,-1.2602342054,-1.2835357411,,,
2.4479999999,306,-1.9552177772,-1.8673357747,-0.9806922824,,,
2.4519999998,306,-2.0898756171,-2.4509638425,-0.8229733806,,,
2.4559999998,307,-1.2945801298,-1.9666954621,0.1229278215,,,
2.4599999997,307,0.1385515374,-0.5706868823,1.7625101377,,,
2.4639999999,308,0.9073126150,0.4273971320,2.8424678587,,,
2.4679999999,308,0.4502568625,0.2779045977,2.5549868207,,,
2.4719999998,309,-0.6921805087,-0.6830337255,1.2002435445,,,
2.4759999998,309,-2.1062209009,-2.0911414392,-0.7670215578,,,
2.4800000000,310,-3.7337462561,-3.8086855980,-3.1372235310,,,
2.4839999999,310,-4.8588534950,-5.0239068536,-5.1570674376,,,
2.4879999999,311,-4.3504049347,-4.5088479768,-5.5988102575,,,
2.4919999999,311,-2.3064329613,-2.2440433513,-4.2098802294,,,
2.4959999998,312,-0.2191577559,0.3245260627,-2.1628722083,,,
2.4999999998,312,0.9588784703,2.1005575147,-0.5070413127,,,
2.5040000000,313,1.7779030179,3.3631488334,0.9404839109,,,
2.5079999999,313,2.8493276252,4.5386909668,2.5803143379,,,
2.5119999999,314,3.6982650647,5.1617675217,3.9107659218,,,
2.5159999998,314,3.7952538650,4.8223418510,4.2809818204,,,
2.5199999998,315,3.5611214705,4.0691162945,3.9431729384,,,
2.5239999997,315,3.4016945391,3.4277111555,3.4215124662,,,
2.5279999999,316,2.7367052798,2.3992854549,2.5177523232,,,
2.5319999999,316,1.0691336239,0.4660254431,0.9477780745,,,
2.5359999998,317,-0.7808593697,-1.6328950080,-0.6057046863,,,
2.5399999998,317,-1.6789117477,-2.7662445243,-1.2102890493,,,
2.5440000000,318,-1.7709736935,-2.9872928889,-1.0858560156,,,
2.5480000000,318,-1.9029078443,-3.1060815266,-1.1846313342,,,
2.5519999999,319,-2.0613910812,-3.2182779891,-1.6584731036,,,
2.5559999999,319,-1.6737386521,-2.8815223126,-1.8524072087,,,
2.5599999998,320,-0.9609622875,-2.3078553355,-1.5901206134,,,
2.5639999998,320,-0.5916520812,-2.0299248346,-1.2714883038,,,
2.5680000000,321,-0.2647932197,-1.6146117858,-0.7736125444,,,
2.5719999999,321,0.9259508123,-0.1045942434,0.4809573766,,,
2.5759999999,322,2.7326778591,2.2274992117,2.1793310354,,,
2.5799999998,322,3.7100258534,3.8584378366,3.0152842886,,,
2.5839999998,323,3.1097684733,3.9422289762,2.3316767275,,,
2.5879999998,323,1.6070188098,3.0971007293,0.8997481492,,,
2.5919999999,324,-0.0716131613,2.0568853889,-0.3480237878,,,
2.5959999999,324,-1.9079781010,0.8235386244,-1.3486305647,,,
2.5999999999,325,-3.5458989566,-0.3884031118,-2.1336143065,,,
2.6039999998,325,-3.8930025559,-0.7045228525,-2.1364134285,,,
2.6079999998,326,-2.5738754346,0.1121451502,-1.1166964645,,,
2.6119999997,326,-0.6997560258,0.9745151019,0.0949580333,,,
2.6159999999,327,0.5628242746,0.8867491315,0.6155965887,,,
2.6199999999,327,1.2278982868,0.1591826656,0.5820339991,,,
2.6239999998,328,1.6032450931,-0.5236548510,0.4627686063,,,
2.6279999998,328,1.2314649024,-1.3251953054,0.0255671794,,,
2.6320000000,329,-0.2603067712,-2.5994498817,-1.0703193917,,,
2.6359999999,329,-2.0420965889,-3.7707877872,-2.2138939567,,,
2.6399999999,330,-2.9522632671,-4.0021870181,-2.4571986556,,,
2.6439999999,330,-2.9522370596,-3.4845479903,-1.8645005323,,,
2.6479999998,331,-2.6295133816,-2.9307627442,-1.1957585195,,,
2.6519999998,331,-1.8137212705,-2.2106831482,-0.5324704579,,,
2.6560000000,332,0.0099302172,-0.7198383168,0.6234357131,,,
2.6599999999,332,2.2650257664,1.1870992731,2.0422151056,,,
2.6639999999,333,3.6346461101,2.4328741657,2.7836714258,,,
2.6679999998,333,3.7596529125,2.8003644687,2.5899390348,,,
2.6719999998,334,3.3816450711,3.0469970309,2.1547559706,,,
2.6759999997,334,2.8569086558,3.4004438804,1.8405651194,,,
2.6799999999,335,1.8085878327,3.1794091427,1.2237318641,,,
2.6839999999,335,0.3872222787,2.1558155987,0.2405814632,,,
2.6879999998,336,-0.4649504364,1.0864765986,-0.3175734315,,,
2.6919999998,336,-0.4056404644,0.4884149106,0.0132627691,,,
2.6960000000,337,-0.1245642712,0.0532339160,0.6751796616,,,
2.7000000000,337,0.0181285908,-0.2818889672,1.1013572776,,,
2.7039999999,338,0.5008759842,0.0680286762,1.4169083804,,,
2.7079999999,338,1.2714248727,1.0503003849,1.5548426905,,,
2.7119999998,339,1.1790232738,1.4554840330,0.7270206174,,,
2.7159999998,339,-0.4142300575,0.4786548231,-1.3821472709,,,
2.7200000000,340,-2.5044835742,-1.1382753288,-3.6878301794,,,
2.7239999999,340,-3.7719909004,-2.2908005132,-4.8473758078,,,
2.7279999999,341,-4.0677378631,-2.8955889148,-4.6959055459,,,
2.7319999998,341,-3.7153871554,-3.2272042730,-3.7499097980,,,
2.7359999998,342,-2.3995054098,-2.8442112121,-2.0497986022,,,
2.7399999998,342,0.0456509515,-1.3413808997,0.4398926184,,,
2.7439999999,343,2.4990866653,0.4732806307,2.8372629238,,,
2.7479999999,343,3.5245421422,1.3605838323,3.9653439755,,,
2.7519999999,344,3.0984659752,1.2463921788,3.7882215547,,,
2.7559999998,344,2.2343364053,0.9382403087,3.1846827348,,,
2.7599999998,345,1.3052286713,0.6212419313,2.4625695687,,,
2.7639999997,345,0.0098004815,-0.1063604368,1.2188071203,,,
2.7679999999,346,-1.3182310938,-0.9251667367,-0.4122607520,,,
2.7719999999,346,-1.8075745060,-0.9081926271,-1.5969149476,,,
2.7759999998,347,-1.4560260466,-0.0182381897,-2.0318921897,,,
2.7799999998,347,-1.1415642389,0.7514419187,-2.2293044360,,,
2.7840000000,348,-1.1184065078,0.8967486087,-2.3569489315,,,
2.7879999999,348,-0.7581998419,0.8724519103,-1.9038232094,,,
2.7919999999,349,-0.0193443410,0.8212116001,-0.8965128125,,,
2.7959999999,349,0.1410565721,0.1155480765,-0.3647447643,,,
2.7999999998,350,-0.6641032554,-1.3165736341,-0.9361478176,,,
2.8039999998,350,-1.4847338813,-2.3903393588,-1.8586300218,,,
2.8080000000,351,-1.4917158415,-2.3118797953,-2.1235308747,,,
2.8119999999,351,-1.0534446239,-1.6151396700,-1.6946556747,,,
2.8159999999,352,-0.6306370539,-1.0178938450,-0.8665765103,,,
2.8199999998,352,0.2227234472,-0.2702183787,0.6472867100,,,
2.8239999998,353,1.8051335377,0.9665801061,2.9506516674,,,
2.8279999997,353,3.2198029187,2.0333061604,5.0013700048,,,
2.8319999999,354,3.4475551799,2.1276243505,5.5238022881,,,
2.8359999999,354,2.7132748624,1.5458440735,4.4785925102,,,
2.8399999999,355,1.7999434069,1.0504781750,2.7287251477,,,
2.8439999998,355,0.7521485125,0.6217808638,0.7399776434,,,
2.8480000000,356,-0.6170486067,-0.0803183392,-1.3491898384,,,
2.8520000000,356,-1.5700022435,-0.5322877387,-2.7854732944,,,
2.8559999999,357,-1.1618313976,0.1031503735,-2.6532184774,,,
2.8599999999,357,0.1521833778,1.4551108052,-1.3027118606,,,
2.8639999998,358,0.9353832387,2.2334320730,-0.1679326431,,,
2.8679999998,358,0.6724684055,1.9793078007,-0.0199367689,,,
2.8720000000,359,0.0255613844,1.3309298839,-0.4161060879,,,
2.8759999999,359,-0.6121888845,0.6511700130,-0.8927388825,,,
2.8799999999,360,-1.4030568350,-0.2706547126,-1.4943512984,,,
2.8839999998,360,-1.8934831479,-1.0750533111,-1.8826983898,,,
2.8879999998,361,-1.0853209354,-0.8074502544,-1.1903272599,,,
2.8919999998,361,0.8766023950,0.5118296410,0.6125616197,,,
2.8959999999,362,2.3665453749,1.4797415386,2.1962436329,,,
2.8999999999,362,2.2128353179,1.0633113621,2.4117944633,,,
2.9039999999,363,0.9291170238,-0.2177286525,1.5720777645,,,
2.9079999998,363,-0.5052016942,-1.4313783260,0.5655056040,,,
2.9119999998,364,-1.9724309568,-2.5485964513,-0.4790298821,,,
2.9159999997,364,-3.5625954103,-3.8439925989,-1.7982078464,,,
2.9199999999,365,-4.6454396064,-4.9095342131,-2.9908204677,,,
2.9239999999,365,-4.6207286009,-5.2287467020,-3.4245649852,,,
2.9279999998,366,-3.8112442173,-4.9959950250,-3.1337738371,,,
2.9319999998,366,-2.6600308285,-4.4285676544,-2.3835197609,,,
2.9360000000,367,-0.8188666476,-2.9753914562,-0.8669366657,,,
2.9399999999,367,1.9480083587,-0.2293888833,1.6529976537,,,
2.9439999999,368,4.6739520468,2.9548328761,4.3140356480,,,
2.9479999999,368,6.1505950812,5.3025796461,5.8320928428,,,
2.9519999998,369,6.4290914780,6.5855158886,5.9626915649,,,
2.9559999998,369,6.2077831554,7.1764998410,5.2900170500,,,
2.9600000000,370,5.2665066958,6.6891144960,3.8583536810,,,
2.9639999999,370,2.8956228483,4.4502110526,1.2351054697,,,
2.9679999999,371,-0.3967013087,1.1135725056,-2.1159000181,,,
2.9719999998,371,-3.0325095932,-1.5828754781,-4.7747915500,,,
2.9759999998,372,-4.2110300590,-2.7324751099,-5.9065852213,,,
2.9799999997,372,-4.3310086073,-2.7508383826,-5.8176370615,,,
2.9839999999,373,-3.5641863071,-1.9531246089,-4.7649492461,,,
2.9879999999,373,-1.4862747068,-0.0682878130,-2.4164889103,,,
2.9919999999,374,1.4699828671,2.4434259547,0.9483236514,,,
2.9959999998,374,3.5829410050,3.9684180452,3.8065321261,,,
3.0000000000,375,3.5846381534,3.3910988381,4.7770059698,,,
3.0040000000,375,1.8496110120,1.2286487290,3.9069413106,,,
3.0079999999,376,-0.6346131978,-1.4069826643,2.0210646348,,,
3.0119999999,376,-3.3372690964,-3.9404177073,-0.3213016102,,,
3.0159999998,377,-5.5792321823,-5.8064278959,-2.5079424657,,,
3.0199999998,377,-6.0852046425,-5.9507918092,-3.4369681023,,,
3.0240000000,378,-4.2769155240,-3.9499420709,-2.5068767611,,,
3.0279999999,378,-1.3131660975,-0.9539488792,-0.5874080387,,,
3.0319999999,379,1.1223004476,1.4426402608,0.9244979098,,,
3.0359999998,379,2.4815816316,2.7354557784,1.6346849901,,,
3.0399999998,380,3.0136559248,3.1465255590,1.9313026918,,,
3.0439999998,380,2.5949730892,2.5001706393,1.7583110795,,,
3.0480000000,381,1.0984677201,0.6355390647,0.7202619819,,,
3.0519999999,381,-0.5904656128,-1.5324959631,-0.8174265208,,,
3.0559999999,382,-1.2704525728,-2.6736226991,-1.9060042537,,,
3.0599999998,382,-0.9831462326,-2.6487624502,-2.3224427293,,,
3.0639999998,383,-0.7111173594,-2.3510533669,-2.6338558975,,,
3.0679999997,383,-0.6880876138,-2.1013623945,-2.8939680955,,,
3.0719999999,384,-0.2632233152,-1.4052152647,-2.4067855972,,,
3.0759999999,384,0.6231497881,-0.2620768490,-1.0169670860,,,
3.0799999998,385,1.1848574587,0.5811566817,0.4438131614,,,
3.0839999998,385,1.1956813842,0.9298447465,1.3803331558,,,
3.0880000000,386,1.4158033532,1.5548727660,2.1649392232,,,
3.0919999999,386,2.2407941745,2.8790356702,3.1727948321,,,
3.0959999999,387,2.9933296512,4.2029052304,3.9403902145,,,
3.0999999999,387,3.0458272152,4.7404346019,3.9110500266,,,
3.1039999998,388,2.6348546512,4.5155961166,3.2670866420,,,
3.1079999998,388,1.9451528363,3.6432841981,2.3035324239,,,
3.1120000000,389,0.4312433377,1.7124848139,0.7047128713,,,
3.1159999999,389,-2.0798719809,-1.2511834456,-1.6856856603,,,
3.1199999999,390,-4.4988513196,-4.0352952677,-3.9778547380,,,
3.1239999998,390,-5.6080231781,-5.3874443131,-5.0193865963,,,
3.1279999998,391,-5.3219877358,-5.2559653425,-4.5949638993,,,
3.1319999998,391,-4.0316806804,-4.1305784518,-3.1087142119,,,
3.1359999999,392,-1.6407158744,-2.0125389167,-0.7010470389,,,
3.1399999999,392,1.6652664058,0.9249306831,2.3492291674,,,
3.1439999999,393,4.4301500328,3.3630022278,4.7936282477,,,
3.1479999998,393,5.0284231658,3.8343786011,5.1793260539,,,
3.1519999998,394,3.4991943718,2.4600241673,3.4614625690,,,
3.1559999997,394,1.2344268732,0.6270639514,0.9497915201,,,
3.1599999999,395,-0.8000381667,-0.7824982764,-1.2544511336,,,
3.1639999999,395,-2.3852604251,-1.7478073917,-2.8214294140,,,
3.1679999998,396,-2.9956181840,-2.0194295772,-3.3831244347,,,
3.1719999998,396,-1.9142150301,-1.0428518610,-2.4360303017,,,
3.1760000000,397,0.4810728049,0.9035825304,-0.3348478027,,,
3.1799999999,397,2.7441829824,2.6400630237,1.6301171319,,,
3.1839999999,398,3.8994881076,3.4279059270,2.5486419812,,,
3.1879999998,398,3.9716224769,3.4109751463,2.4952101801,,,
3.1919999998,399,2.9190861677,2.5289664053,1.5802023795,,,
3.1959999998,399,0.3614634498,0.2230710029,-0.5199223370,,,
3.2000000000,400,-3.1582824422,-3.2312479391,-3.4878149409,,,
3.2039999999,400,-5.8890159822,-6.2318367651,-5.8356422814,,,
3.2079999999,401,-6.6202552300,-7.4298579246,-6.3162735193,,,
3.2119999998,401,-5.8233066687,-6.9476730127,-5.2058581889,,,
3.2159999998,402,-4.4486538519,-5.4550372939,-3.4987609518,,,
3.2199999997,402,-2.6056454446,-3.0565961686,-1.5625594902,,,
3.2239999999,403,-0.2514128462,0.0631087881,0.5824356002,,,
3.2279999999,403,1.8143016808,2.8197567594,2.3781082245,,,
3.2319999998,404,2.7869381624,4.1827656307,3.2425524521,,,
3.2359999998,404,3.0412750712,4.4175119338,3.5728494112,,,
3.2400000000,405,3.4094859244,4.4027010939,4.1769817079,,,
3.2439999999,405,3.8079142229,4.2170464264,4.9445228667,,,
3.2479999999,406,3.6591761667,3.4497153427,5.0755452651,,,
3.2519999999,406,3.1886955004,2.4382898798,4.4156780589,,,
3.2559999998,407,3.0410526152,1.9228128194,3.4880194581,,,
3.2599999998,407,2.9197865492,1.7154758178,2.3484449791,,,
3.2640000000,408,1.9747838629,1.0338593427,0.6288134730,,,
3.2679999999,408,0.4270259143,0.0539010863,-1.2378188058,,,
3.2719999999,409,-0.5531921164,-0.2021239971,-2.0842286708,,,
3.2759999998,409,-0.6072040175,0.4485362005,-1.5798493871,,,
3.2799999998,410,-0.5330721144,1.0578633043,-0.6826440633,,,
3.2839999998,410,-0.7946343133,1.0652264517,-0.2416042204,,,
3.2879999999,411,-0.9897575717,0.8755807423,-0.1630865286,,,
3.2919999999,411,-1.0247285471,0.6931542411,-0.2891743214,,,
3.2959999999,412,-1.4829892253,0.0332236491,-0.9833748674,,,
3.2999999998,412,-2.3516871584,-1.1472602521,-2.2355069558,,,
3.3039999998,413,-2.6142422780,-1.9978158441,-3.1456842390,,,
3.3079999997,413,-1.7604934085,-2.0790375840,-3.0329401117,,,
3.3119999999,414,-0.6465686443,-2.1083606441,-2.3245627910,,,
3.3159999999,414,-0.1614527206,-2.7000562920,-1.6714794099,,,
3.3199999998,415,-0.0590759750,-3.3153922249,-0.9398326022,,,
3.3239999998,415,0.0628991781,-3.3233399191,0.0866491919,,,
3.3280000000,416,-0.2992804333,-3.1676002006,0.7672700363,,,
3.3319999999,416,-1.4981247401,-3.3948588335,0.4679955255,,,
3.3359999999,417,-2.5228300664,-3.3561706131,-0.1955981512,,,
3.3399999999,417,-2.1637800594,-2.1448868897,-0.1395705603,,,
3.3439999998,418,-0.7848679458,-0.2397821870,0.5337912711,,,
3.3479999998,418,0.3059035293,1.0600317663,0.7953615728,,,
3.3520000000,419,0.7480855986,1.4397861780,0.3454170995,,,
3.3559999999,419,1.1257084929,1.5965425306,-0.1468927791,,,
3.3599999999,420,1.5075088582,1.8077942436,-0.3323493836,,,
3.3639999998,420,1.3962097446,1.7729296440,-0.5249161089,,,
3.3679999998,421,0.9626767687,1.7316404304,-0.7113182598,,,
3.3719999997,421,0.9461214293,2.3783837324,-0.3931737477,,,
3.3759999999,422,1.2560508540,3.4981799432,0.3275761005,,,
3.3799999999,422,0.9844382610,3.9351169608,0.6132582252,,,
3.3839999998,423,0.0504018084,3.2457619521,0.2517825302,,,
3.3879999998,423,-0.4565119425,2.2331497015,0.1134408093,,,
3.3920000000,424,0.0159753422,1.4854377577,0.7386546622,,,
3.3959999999,424,0.6575980185,0.5801630341,1.4570004978,,,
3.3999999999,425,0.6912245839,-0.7587829612,1.5115709192,,,
3.4039999999,425,0.4175923274,-1.8767372392,1.1388336845,,,
3.4079999998,426,0.2489552904,-2.2567682753,0.8487700024,,,
3.4119999998,426,-0.1416718153,-2.3634424837,0.5101890274,,,
3.4160000000,427,-0.9253746352,-2.6661070592,-0.0556131261,,,
3.4199999999,427,-1.4208139213,-2.7531794847,-0.3682680893,,,
3.4239999999,428,-1.1777529909,-2.2332763390,-0.0699679915,,,
3.4279999998,428,-0.8680645196,-1.6530593416,0.2220913015,,,
3.4319999998,429,-1.1500644355,-1.5654860457,-0.2130603851,,,
3.4359999998,429,-1.4154193602,-1.3994505588,-0.9619862761,,,
3.4399999999,430,-0.7410869720,-0.3443156510,-1.0897355612,,,
3.4439999999,430,0.5425030240,1.1847821198,-0.5908216926,,,
3.4479999999,431,1.4035843758,2.1083154301,-0.1803464828,,,
3.4519999998,431,1.7101898663,2.2722689577,0.0376536198,,,
3.4559999998,432,2.0351038064,2.3050100355,0.5441798217,,,
3.4599999997,432,2.2686082794,2.2547263295,1.2034344079,,,
3.4639999999,433,1.8032241606,1.6745877870,1.2928217883,,,
3.4679999999,433,0.9383582267,0.8999723666,0.8239603935,,,
3.4719999998,434,0.6766301541,0.8364121509,0.6543822199,,,
3.4759999998,434,1.0147971923,1.3358651382,0.9997252246,,,
3.4800000000,435,0.7856792525,1.1018662612,0.9694390817,,,
3.4839999999,435,-0.5113120199,-0.4307550859,0.0253638685,,,
3.4879999999,436,-1.9698554219,-2.2617491583,-1.1374150713,,,
3.4919999999,436,-2.7576373124,-3.2771994086,-1.7167747103,,,
3.4959999998,437,-3.0928649981,-3.4093977629,-1.8438830185,,,
3.4999999998,437,-3.1846946264,-2.8513455005,-1.8477690688,,,
3.5040000000,438,-2.4967722453,-1.3832789660,-1.4567589781,,,
3.5079999999,438,-0.9091093441,0.6941241331,-0.5757499178,,,
3.5119999999,439,0.5324086659,2.0859820922,0.0166044363,,,
3.5159999998,439,0.9748755062,1.9588010744,-0.2959135029,,,
3.5199999998,440,0.9160643566,1.0509896018,-0.9125667046,,,
3.5239999997,440,1.1161034072,0.4856642712,-0.9106397235,,,
3.5279999999,441,1.2885249859,0.2919157018,-0.4114769063,,,
3.5319999999,441,0.8855874572,0.0023675226,-0.1265868082,,,
3.5359999998,442,0.3592503477,-0.1120144762,-0.0676253546,,,
3.5399999998,442,0.4969191072,0.4641057250,0.2611114453,,,
3.5440000000,443,1.1061450446,1.3432905844,0.7680889053,,,
3.5480000000,443,1.4664638838,1.7157210111,0.9392884787,,,
3.5519999999,444,1.5902760670,1.5889853799,0.8755770312,,,
3.5559999999,444,1.9000318225,1.4877994293,1.1364277508,,,
3.5599999998,445,2.0375143830,1.2529397744,1.6455687273,,,
3.5639999998,445,1.2253162635,0.2864618727,1.7511201779,,,
3.5680000000,446,-0.3440840774,-1.1657345683,1.3813849469,,,
3.5719999999,446,-1.6789794264,-2.1538646606,1.1233303682,,,
3.5759999999,447,-2.5034851063,-2.4728385346,1.0219376735,,,
3.5799999998,447,-3.3541357259,-2.7994376458,0.3902639757,,,
3.5839999998,448,-4.0797803964,-3.2279208448,-0.8476468914,,,
3.5879999998,448,-3.6088639794,-2.8927036890,-1.6680845463,,,
3.5919999999,449,-1.6135107377,-1.4326856922,-1.3039901577,,,
3.5959999999,449,0.7445209570,0.2528838797,-0.2474689004,,,
3.5999999999,450,2.2109711407,1.2039330107,0.5923463729,,,
3.6039999998,450,2.5840422723,1.4001418181,0.9226625894,,,
3.6079999998,451,2.0188161541,1.0428073690,0.6809670559,,,
3.6119999997,451,0.3964503268,-0.0820702927,-0.4729448861,,,
3.6159999999,452,-1.7758370245,-1.6876944474,-2.3504136410,,,
3.6199999999,452,-2.9220093362,-2.4160089500,-3.6239389261,,,
3.6239999998,453,-2.0029130686,-1.2854292697,-3.1033834930,,,
3.6279999998,453,0.1118421764,0.9280491170,-1.2269779587,,,
3.6320000000,454,1.8544611095,2.7413788630,0.6293098707,,,
3.6359999999,454,2.8337231287,3.7691650892,1.8703659301,,,
3.6399999999,455,3.4881094870,4.4539070887,2.7181249981,,,
3.6439999999,455,3.6688261797,4.6682572359,3.0135204686,,,
3.6479999998,456,2.9122441152,3.9043500500,2.2577461874,,,
3.6519999998,456,1.6644467034,2.5047167062,0.7397298878,,,
3.6560000000,457,0.8757801347,1.3923386457,-0.5561948268,,,
3.6599999999,457,0.5356609355,0.6664392580,-1.2550212875,,,
3.6639999999,458,-0.1768443806,-0.3787208693,-1.7827894737,,,
3.6679999998,458,-1.3571611639,-1.8649663792,-2.1815336943,,,
3.6719999998,459,-2.2183554917,-3.1094236740,-1.8552259429,,,
3.6759999997,459,-2.5037524864,-3.8569529101,-0.7565692752,,,
3.6799999999,460,-2.7468378196,-4.5125479363,0.2885549539,,,
3.6839999999,460,-2.9168480188,-4.9126053455,0.8507707226,,,
3.6879999998,461,-2.1683312127,-4.1422642257,1.4503104543,,,
3.6919999998,461,-0.4209540508,-2.0911578755,2.3402095057,,,
3.6960000000,462,1.0351519904,-0.0688108400,2.7447497105,,,
3.7000000000,462,1.1585867351,0.7697827039,2.0036343133,,,
3.7039999999,463,0.3368335226,0.6396454553,0.6104667978,,,
3.7079999999,463,-0.6730172420,0.1821426086,-0.6542692962,,,
3.7119999998,464,-1.8607757964,-0.5918841689,-1.8144933913,,,
3.7159999998,464,-3.2009505016,-1.5927323418,-3.0654319723,,,
3.7200000000,465,-3.8444268732,-1.9125209568,-3.8141066888,,,
3.7239999999,465,-3.1275719550,-0.8609937933,-3.3630211728,,,
3.7279999999,466,-1.5875615380,0.9726951347,-2.0027187400,,,
3.7319999998,466,0.0081004748,2.6410034710,-0.4833416447,,,
3.7359999998,467,1.8238104083,4.0936659599,1.0656767679,,,
3.7399999998,467,4.0839607227,5.5151619439,2.7040899664,,,
3.7439999999,468,5.8311999000,6.1489214907,3.6892705053,,,
3.7479999999,468,5.8156442226,5.0233397315,3.0839711298,,,
3.7519999999,469,4.2011671903,2.4951918356,1.1898055619,,,
3.7559999998,469,2.2916622228,-0.0287400631,-0.6194167805,,,
3.7599999998,470,0.8642033120,-1.7232741218,-1.4654181909,,,
3.7639999997,470,-0.1276448971,-2.6742244020,-1.4703364274,,,
3.7679999999,471,-0.4695052072,-2.7979859714,-0.7772414515,,,
3.7719999999,471,0.2592267336,-1.7895533529,0.7232142346,,,
3.7759999998,472,1.4276266049,-0.2869794396,2.4224625441,,,
3.7799999998,472,1.5469599048,0.2648516276,2.9659316664,,,
3.7840000000,473,0.1147830934,-0.6583098263,1.7856211801,,,
3.7879999999,473,-1.8283811558,-2.1088708303,-0.1888703383,,,
3.7919999999,474,-3.2554932870,-3.1406385194,-1.7915000834,,,
3.7959999999,474,-4.1071938256,-3.7201092774,-2.7221285259,,,
3.7999999998,475,-4.3441895975,-3.7947552866,-2.9494649726,,,
3.8039999998,475,-3.3924231159,-2.7422956232,-2.0905899322,,,
3.8080000000,476,-1.2994371895,-0.5085220428,-0.2156745177,,,
3.8119999999,476,0.6673239161,1.7545391753,1.5566162868,,,
3.8159999999,477,1.4488147652,3.0042462109,2.1791456245,,,
3.8199999998,477,1.3519469402,3.4187029732,1.8433698729,,,
3.8239999998,478,1.0330584668,3.4789985397,1.2805863591,,,
3.8279999997,478,0.2656011648,2.8471296530,0.5038518930,,,
3.8319999999,479,-1.3043526864,1.1213854080,-0.8329795718,,,
3.8359999999,479,-2.9488447954,-0.9850897774,-2.3029309762,,,
3.8399999999,480,-3.5465793972,-2.3047185584,-3.0116007795,,,
3.8439999998,480,-2.9901448261,-2.6142528956,-2.8090343848,,,
3.8480000000,481,-1.8615624616,-2.3793085971,-2.1964543623,,,
3.8520000000,481,-0.2187841495,-1.5753888078,-1.2388598601,,,
3.8559999999,482,2.0507423978,0.0198160533,0.2974624092,,,
3.8599999999,482,4.0402593574,1.6527685719,1.8249233108,,,
3.8639999998,483,4.4435114749,2.0966723083,2.2256795164,,,
3.8679999998,483,3.3290210561,1.3372665390,1.4113782928,,,
3.8720000000,484,2.0116968446,0.5322728834,0.4607540053,,,
3.8759999999,484,1.2009634101,0.2838807351,0.0492124669,,,
3.8799999999,485,0.5927788577,0.2070623008,-0.1164913159,,,
3.8839999998,485,0.2820304198,0.2742294099,-0.1052651219,,,
3.8879999998,486,1.0179871896,1.1392790763,0.6938858132,,,
3.8919999998,486,2.6633290581,2.7109624902,2.3190175610,,,
3.8959999999,487,3.8225279073,3.7477948829,3.6821358616,,,
3.8999999999,487,3.6164298828,3.4996223600,3.9424713050,,,
3.9039999999,488,2.6366249698,2.6169038070,3.4827685011,,,
3.9079999998,488,1.5819498530,1.8106004072,2.8790886256,,,
3.9119999998,489,0.2132880034,0.7619018761,1.8760862746,,,
3.9159999997,489,-1.5923736163,-0.8507147419,0.2034015157,,,
3.9199999999,490,-2.9707864481,-2.3310273484,-1.4653974828,,,
3.9239999999,490,-3.2593519863,-2.9592949078,-2.3564360142,,,
3.9279999998,491,-3.1447551110,-3.1675177550,-2.7635024717,,,
3.9319999998,491,-3.6171284170,-3.7387911692,-3.4044948772,,,
3.9360000000,492,-4.4890931908,-4.4992419423,-4.1071139430,,,
3.9399999999,492,-4.9446555356,-4.7919791462,-4.1447745957,,,
3.9439999999,493,-4.9202066657,-4.6908426314,-3.5387386978,,,
3.9479999999,493,-4.8131529778,-4.6453461056,-2.9623627942,,,
3.9519999998,494,-4.3248825766,-4.3339890332,-2.5389021895,,,
3.9559999998,494,-2.8872449900,-3.0896792489,-1.8315103009,,,
3.9600000000,495,-0.9826896369,-1.2530957085,-0.9579629076,,,
3.9639999999,495,0.2762997366,0.1396155581,-0.5504992106,,,
3.9679999999,496,0.8156315071,0.9605126993,-0.4970868867,,,
3.9719999998,496,1.5665707400,2.0345151257,0.0987178460,,,
3.9759999998,497,2.7481411479,3.5201305547,1.4020988870,,,
3.9799999997,497,3.5386661612,4.5642017684,2.4270630908,,,
3.9839999999,498,3.6623442433,4.8437656453,2.5629073539,,,
3.9879999999,498,3.9167097614,5.1377666370,2.4161065807,,,
3.9919999999,499,4.6947440094,5.8846922291,2.6037735435,,,
3.9959999998,499,5.2742052007,6.3736164645,2.8014179638,,,
4.0000000000,500,5.1167622536,5.9468505477,2.6317155649,,,
4.0040000000,500,4.6366226109,4.8828468184,2.4433953416,,,
4.0079999999,501,4.0132133390,3.4244113295,2.4018545768,,,
4.0119999999,501,2.4678968623,1.0632473600,1.7553650073,,,
4.0159999998,502,-0.3425662566,-2.2876418679,-0.0023079790,,,
4.0199999998,502,-3.2192369294,-5.3352455034,-1.9606737406,,,
4.0240000000,503,-4.7311505960,-6.6588519202,-2.8003014804,,,
4.0279999999,503,-4.8312736413,-6.2646068797,-2.4086053720,,,
4.0319999999,504,-4.2376025849,-5.0176141816,-1.5553504531,,,
4.0359999998,504,-3.0937632082,-3.3039703393,-0.5714989394,,,
4.0399999998,505,-1.3876262302,-1.3191652963,0.5680127228,,,
4.0439999998,505,0.0338279299,0.0189049991,1.3255337656,,,
4.0480000000,506,0.1961929120,-0.2142745370,0.9923822857,,,
4.0519999999,506,-0.5593068823,-1.5284426268,-0.0804208303,,,
4.0559999999,507,-0.9771732091,-2.3977738740,-0.6831640944,,,
4.0599999998,507,-0.5604289328,-1.9942265866,-0.2898846161,,,
4.0639999998,508,0.1916789242,-0.6275856559,0.4946626725,,,
4.0679999997,508,1.0258411914,1.3333553327,1.1079314256,,,
4.0719999999,509,2.1438136773,3.7324741470,1.5903563718,,,
4.0759999999,509,3.1286614699,5.7536731217,1.7512378831,,,
4.0799999998,510,2.9919521783,6.1075889309,0.9231209273,,,
4.0839999998,510,1.6061108656,4.5200638488,-0.9387582282,,,
4.0880000000,511,-0.0372624101,2.0430332329,-2.8215637026,,,
4.0919999999,511,-1.3089905953,-0.4109619911,-3.8468664881,,,
4.0959999999,512,-2.5525893622,-2.7860895033,-4.0942481836,,,
4.0999999999,512,-3.8245084668,-4.8042554930,-3.7608350524,,,
4.1039999998,513,-4.2162869423,-5.4049042332,-2.4357097453,,,
4.1079999998,513,-3.0949393940,-4.0018290496,0.0536061877,,,
4.1120000000,514,-1.0655966037,-1.4087919720,2.8128932162,,,
4.1159999999,514,0.9700545752,1.1834125286,4.7165033315,,,
4.1199999999,515,2.8088023346,3.3404734194,5.5323525446,,,
4.1239999998,515,4.1987069478,4.7561373740,5.4316682061,,,
4.1279999998,516,4.0561858806,4.4374942280,4.0249383109,,,
4.1319999998,516,1.6775124371,1.7688657223,1.0274546479,,,
4.1359999999,517,-1.8466190257,-2.1364455089,-2.5371910724,,,
4.1399999999,517,-4.6187326173,-5.3535265475,-5.0313043990,,,
4.1439999999,518,-5.8599688709,-7.0208694916,-5.9149659309,,,
4.1479999998,518,-5.7948583563,-7.2610371939,-5.7472017769,,,
4.1519999998,519,-4.3145339780,-5.8828762876,-4.8104777086,,,
4.1559999997,519,-1.2332338380,-2.6329326017,-2.9555125897,,,
4.1599999999,520,2.4233992170,1.5009130977,-0.6892183688,,,
4.1639999999,520,4.8977329109,4.6950670375,0.8976414379,,,
4.1679999998,521,5.5772869807,6.1437416390,1.5246995332,,,
4.1719999998,521,5.2469580318,6.4232937731,1.9711105563,,,
4.1760000000,522,4.5003839997,6.0264401958,2.6617739143,,,
4.1799999999,522,3.1942857481,4.8014913708,3.0484907185,,,
4.1839999999,523,1.6126802975,3.0317653514,2.7620136505,,,
4.1879999998,523,0.7414227298,1.7091577825,2.3115116289,,,
4.1919999998,524,0.8762534795,1.2089761336,2.1200971913,,,
4.1959999998,524,1.1443760876,0.8105657418,1.8626336472,,,
4.2000000000,525,0.9415349237,0.0526336802,1.3637744882,,,
4.2039999999,525,0.7215137483,-0.5222634763,1.2087350815,,,
4.2079999999,526,0.7676736908,-0.5749708669,1.7135953255,,,
4.2119999998,526,0.3458209170,-0.8260399221,2.1035916321,,,
4.2159999998,527,-1.0542954736,-1.8707167831,1.5805973507,,,
4.2199999997,527,-2.6105221938,-3.0610708003,0.5483483868,,,
4.2239999999,528,-3.2843762475,-3.5139354491,-0.1241190188,,,
4.2279999999,528,-3.2412652081,-3.4412057830,-0.4681440316,,,
4.2319999998,529,-3.1803485953,-3.4768775985,-1.0766892772,,,
4.2359999998,529,-3.0279101132,-3.3947348052,-1.8980696446,,,
4.2400000000,530,-2.4230215392,-2.6256360800,-2.4427298977,,,
4.2439999999,530,-1.8706824263,-1.5167316917,-2.8737040909,,,
4.2479999999,531,-2.0963191787,-0.8394256350,-3.7119710788,,,
4.2519999999,531,-2.6080585315,-0.3950028219,-4.5746264580,,,
4.2559999998,532,-2.2481974059,0.5849838387,-4.4284457704,,,
4.2599999998,532,-0.9888530523,1.8616940735,-3.1445688435,,,
4.2640000000,533,0.1267812597,2.3502402376,-1.6631093691,,,
4.2679999999,533,0.6751582675,1.8022005846,-0.5627092256,,,
4.2719999999,534,1.1479722856,1.0681995170,0.4023809941,,,
4.2759999998,534,1.6532791977,0.6765065052,1.2683563481,,,
4.2799999998,535,1.7058037248,0.3823826983,1.5495720243,,,
4.2839999998,535,1.4174218401,0.2137941324,1.2415000182,,,
4.2879999999,536,1.5822326401,0.6783819039,1.0821613124,,,
4.2919999999,536,2.2551187456,1.5765807259,1.3712635523,,,
4.2959999999,537,2.4459037926,1.7983092001,1.4596114252,,,
4.2999999998,537,1.7090743623,0.8717837354,0.9581268161,,,
4.3039999998,538,0.9072533424,-0.3006763944,0.5533215106,,,
4.3079999997,538,0.8004574258,-0.8247524222,0.9299013777,,,
4.3119999999,539,0.9914639576,-0.9075524341,1.6994575916,,,
4.3159999999,539,1.0159749522,-0.9031277525,2.1981524499,,,
4.3199999998,540,1.3950966575,-0.3253635932,2.6126308664,,,
4.3239999998,540,2.6064261764,1.2140290851,3.3688372396,,,
4.3280000000,541,3.8795554384,2.9059517279,4.0022868626,,,
4.3319999999,541,4.1121615646,3.6610012105,3.7028826304,,,
4.3359999999,542,3.3043488348,3.4920414743,2.5784591159,,,
4.3399999999,542,2.0335827238,2.9395019313,1.3386234428,,,
4.3439999998,543,0.2060628277,1.7825365241,0.0700240025,,,
4.3479999998,543,-2.4427185837,-0.4437941651,-1.5934813631,,,
4.3520000000,544,-5.1042939968,-3.0859352944,-3.3219817953,,,
4.3559999999,544,-6.4696823782,-4.7941668587,-4.2481651889,,,
4.3599999999,545,-6.3602173417,-5.1440872036,-4.2607059938,,,
4.3639999998,545,-5.6218705248,-4.7229175187,-4.0737796352,,,
4.3679999998,546,-4.5518092304,-3.7579909402,-3.8968382329,,,
4.3719999997,546,-2.7146906637,-1.9258858800,-3.1264743067,,,
4.3759999999,547,-0.3707347577,0.3849185499,-1.6490047835,,,
4.3799999999,547,1.2690293581,1.9175347255,-0.3696127994,,,
4.3839999998,548,1.5706141389,2.0344004188,0.0206765905,,,
4.3879999998,548,1.0755152604,1.2821745897,-0.1714523324,,,
4.3920000000,549,0.2028535235,0.1436774673,-0.5811736706,,,
4.3959999999,549,-1.3551774767,-1.5773837225,-1.4674563533,,,
4.3999999999,550,-3.3524201924,-3.6033328755,-2.7631086347,,,
4.4039999999,550,-4.3809252936,-4.6206653729,-3.4003102703,,,
4.4079999998,551,-3.4431337839,-3.7245192892,-2.4890030124,,,
4.4119999998,551,-1.2067753364,-1.5697795392,-0.5093867088,,,
4.4160000000,552,1.1254573228,0.7014481146,1.4956034672,,,
4.4199999999,552,3.2757586336,2.8352744681,3.2669674188,,,
4.4239999999,553,5.2890674625,4.8830083228,4.9389066926,,,
4.4279999998,553,6.4364295561,6.1375850996,5.9532463688,,,
4.4319999998,554,6.0100301295,5.8855152852,5.5754409274,,,
4.4359999998,554,4.6056682860,4.6616622929,4.1667349909,,,
4.4399999999,555,3.3676613171,3.5400877222,2.7966751413,,,
4.4439999999,555,2.4203207472,2.5767440470,1.7827299731,,,
4.4479999999,556,1.2222162590,1.1266314626,0.6757087555,,,
4.4519999998,556,-0.0168685449,-0.6699136391,-0.5029326414,,,
4.4559999998,557,-0.5635686975,-1.9544168845,-1.1314356260,,,
4.4599999997,557,-0.4768520068,-2.4738635234,-1.0514641177,,,
4.4639999999,558,-0.4222491667,-2.6485089361,-0.7096525115,,,
4.4679999999,558,-0.3387491697,-2.4287977094,-0.1719749413,,,
4.4719999998,559,0.4309963239,-1.3133097678,0.9535247658,,,
4.4759999998,559,1.6739633768,0.3942464448,2.4039619567,,,
4.4800000000,560,2.2517451015,1.5544425429,3.1201915735,,,
4.4839999999,560,1.7162215698,1.7048726247,2.6035658918,,,
4.4879999999,561,0.7978678907,1.5137544341,1.4983269690,,,
4.4919999999,561,0.0067216392,1.4172580163,0.4133848183,,,
4.4959999998,562,-1.0431957409,0.9545446796,-0.9045721848,,,
4.4999999998,562,-2.4898420501,-0.0902809772,-2.6934869552,,,
4.5040000000,563,-3.6180919771,-1.0333496833,-4.3830206296,,,
4.5079999999,563,-4.0337538861,-1.4169713943,-5.3852043370,,,
4.5119999999,564,-4.3762709387,-1.7968485370,-5.9295400376,,,
4.5159999998,564,-5.1084328535,-2.6661369693,-6.3415011997,,,
4.5199999998,565,-5.5474199603,-3.4684518153,-6.1675427881,,,
4.5239999997,565,-4.9874428174,-3.5483342958,-4.9393923822,,,
4.5279999999,566,-3.9333765415,-3.2936513110,-3.2518641765,,,
4.5319999999,566,-3.1950431682,-3.3209791694,-2.0458217323,,,
4.5359999998,567,-2.5187601942,-3.2318991900,-1.2492176883,,,
4.5399999998,567,-1.2659314466,-2.3259606490,-0.1790960636,,,
4.5440000000,568,0.1789956359,-1.0067102910,1.0879161494,,,
4.5480000000,568,0.9247856682,-0.2798739475,1.8668915120,,,
4.5519999999,569,1.1001731462,-0.1873714500,2.1625067199,,,
4.5559999999,569,1.6365212454,0.0987762697,2.6788453595,,,
4.5599999998,570,2.7261424979,0.8233312478,3.5454689495,,,
4.5639999998,570,3.6823240573,1.4543111921,4.1219420709,,,
4.5680000000,571,4.2455730365,1.8631614130,4.2061809928,,,
4.5719999999,571,4.8013090630,2.4890347767,4.3676632547,,,
4.5759999999,572,5.2279826758,3.2117123402,4.7842888849,,,
4.5799999998,572,4.7833242226,3.2526450111,4.7599494313,,,
4.5839999998,573,3.4188174498,2.5048979316,3.8312511903,,,
4.5879999998,573,2.0721365705,1.8648440262,2.4577075222,,,
4.5919999999,574,1.3422180545,1.8787003225,1.1892425014,,,
4.5959999999,574,0.9790222822,2.1289896819,0.0667688903,,,
4.5999999999,575,0.9893055826,2.3575908086,-0.6677362376,,,
4.6039999998,575,1.9854720013,3.0475887203,-0.2638821076,,,
4.6079999998,576,3.8065775089,4.2438257506,1.3382569387,,,
4.6119999997,576,4.9402271667,4.8627563838,2.7801258156,,,
4.6159999999,577,4.2013560193,4.0631745117,2.6629830810,,,
4.6199999999,577,2.0854055327,2.4170022066,1.0576499449,,,
4.6239999998,578,-0.3722947656,0.7948752731,-1.1519349089,,,
4.6279999998,578,-3.0764191075,-1.0240503489,-3.6485669511,,,
4.6320000000,579,-6.1768069421,-3.5650162583,-6.3760749939,,,
4.6359999999,579,-8.8142611838,-6.2347306623,-8.5141126298,,,
4.6399999999,580,-9.8288153574,-7.8381756064,-8.9772900856,,,
4.6439999999,580,-9.1981806605,-8.0234931868,-7.7125503028,,,
4.6479999998,581,-7.6837051596,-7.1742115304,-5.5515720040,,,
4.6519999998,581,-5.5529649271,-5.3646662620,-3.0275654016,,,
4.6560000000,582,-2.8351679159,-2.6430430407,-0.3444319033,,,
4.6599999999,582,-0.4212458037,-0.0529976335,1.7181213663,,,
4.6639999999,583,0.5199650942,0.9964583153,2.1563439973,,,
4.6679999998,583,0.2029978967,0.4731844440,1.1827267685,,,
4.6719999998,584,0.0455933041,-0.2791732568,0.2400204110,,,
4.6759999997,584,0.7839761078,-0.3214127204,0.3329125972,,,
4.6799999999,585,1.9505243068,0.2182466768,1.2718685012,,,
4.6839999999,585,3.2090699828,1.2276686532,2.6676631311,,,
4.6879999998,586,4.7899637382,2.9444259832,4.4791613935,,,
4.6919999998,586,6.2997077606,4.8387422151,6.1536123144,,,
4.6960000000,587,6.5336649072,5.5142934362,6.4322197716,,,
4.7000000000,587,5.1294356517,4.4315815572,4.8231892061,,,
4.7039999999,588,3.2137307911,2.6647127822,2.3854977050,,,
4.7079999999,588,1.7620267529,1.3100771848,0.3426657955,,,
4.7119999998,589,0.5416497021,0.2759166146,-1.1543742376,,,
4.7159999998,589,-0.6355849424,-0.6769994937,-2.2087302750,,,
4.7200000000,590,-0.9694861106,-0.9644876186,-2.2457327770,,,
4.7239999999,590,0.0342533104,-0.2216474118,-0.9178289989,,,
4.7279999999,591,1.4078034128,0.6918547002,0.8703082934,,,
4.7319999998,591,1.9019116178,0.7705437801,1.8807689499,,,
4.7359999998,592,1.5194770552,0.2296023471,1.9605330981,,,
4.7399999998,592,0.8837823216,-0.1916641137,1.6381977290,,,
4.7439999999,593,-0.1568843334,-0.6482967885,0.8384893182,,,
4.7479999999,593,-2.0201244006,-1.7109148553,-0.8429961779,,,
4.7519999999,594,-3.9869670321,-2.9037015056,-2.8617224979,,,
4.7559999998,594,-4.7511244336,-3.0846594105,-4.0100017241,,,
4.7599999998,595,-4.1916946154,-2.1265329303,-3.9914676798,,,
4.7639999997,595,-3.3084653929,-0.9695563703,-3.5711416750,,,
4.7679999999,596,-2.5684493146,-0.1167326329,-3.1374962654,,,
4.7719999999,596,-1.6544327768,0.6620526241,-2.3024022577,,,
4.7759999998,597,-0.7856022520,1.1441057332,-1.0990486136,,,
4.7799999998,597,-0.8233638654,0.5494035403,-0.3562129668,,,
4.7840000000,598,-1.7720347976,-1.0533652961,-0.4323695277,,,
4.7879999999,598,-2.4480955912,-2.4254427412,-0.5949240792,,,
4.7919999999,599,-2.0710346997,-2.6914408521,-0.1748103651,,,
4.7959999999,599,-1.0766319837,-2.1800894781,0.5501470082,,,
4.7999999998,600,0.0384128001,-1.3643686987,1.1296631033,,,
4.8039999998,600,1.4671729804,-0.1076228334,1.6856410424,,,
4.8080000000,601,3.0956592259,1.4495320021,2.2431299872,,,
4.8119999999,601,3.9356631987,2.3555925188,2.1769837767,,,
4.8159999999,602,3.4507651378,2.0857160545,1.1845121964,,,
4.8199999998,602,2.5552169920,1.4906831754,0.1607022884,,,
4.8239999998,603,2.3392823794,1.5680473654,0.1458293946,,,
4.8279999997,603,2.5781793799,2.0111826993,0.8949429757,,,
4.8319999999,604,2.4773691628,1.9679466088,1.4400784982,,,
4.8359999999,604,2.0817331528,1.5053378699,1.5544449933,,,
4.8399999999,605,1.7946907512,1.1878172702,1.5988514077,,,
4.8439999998,605,1.1765952305,0.7981254412,1.3545263910,,,
4.8480000000,606,-0.4299624953,-0.2467735588,0.2587418685,,,
4.8520000000,606,-2.3843006428,-1.4973721257,-1.2746482668,,,
4.8559999999,607,-3.1905825994,-1.7836525215,-1.9798167933,,,
4.8599999999,607,-2.4431852052,-0.9031420407,-1.3925740167,,,
4.8639999998,608,-1.1516544351,0.1886628015,-0.3519158550,,,
4.8679999998,608,-0.1473806579,0.8859223374,0.3414839255,,,
4.8720000000,609,0.5914035095,1.4299025082,0.7229929564,,,
4.8759999999,609,0.9809065436,1.8262337108,0.8842039339,,,
4.8799999999,610,0.5775586121,1.5430481701,0.5151616848,,,
4.8839999998,610,-0.3496812398,0.6283479180,-0.2675079588,,,
4.8879999998,611,-0.7325176545,-0.0447395216,-0.6084199266,,,
4.8919999998,611,-0.2195762435,-0.1424067459,-0.0732638157,,,
4.8959999999,612,0.2972600594,-0.4169577047,0.6838136787,,,
4.8999999999,612,0.1775148217,-1.3504076700,1.0027205047,,,
4.9039999999,613,-0.0538039262,-2.2815481954,1.1353796060,,,
4.9079999998,613,0.0962473299,-2.5331907547,1.4072375741,,,
4.9119999998,614,0.1093111811,-2.4194127044,1.3072271948,,,
4.9159999997,614,-0.4794162843,-2.3413146891,0.2899437366,,,
4.9199999999,615,-1.0713742683,-1.8485369628,-1.2095001987,,,
4.9239999999,615,-1.0658243562,-0.5917156530,-2.4757359967,,,
4.9279999998,616,-1.0243217337,0.6277396959,-3.5920489897,,,
4.9319999998,616,-1.6402715809,0.8931995017,-4.8028544191,,,
4.9360000000,617,-2.3005987396,0.6157366249,-5.3529832076,,,
4.9399999999,617,-1.9337726083,0.7732013113,-4.2050967746,,,
4.9439999999,618,-0.7540393554,1.2319368011,-1.7031168560,,,
4.9479999999,618,0.0815950178,1.0450289319,0.6031636478,,,
4.9519999998,619,0.1443097537,0.0335773380,1.7003210649,,,
4.9559999998,619,-0.1184064456,-1.1210666805,1.7351237791,,,
4.9600000000,620,-0.4864675271,-2.0262792387,1.1597310541,,,
4.9639999999,620,-0.9333101862,-2.6115986104,0.4058881230,,,
4.9679999999,621,-0.7509285805,-2.2757289942,0.3458122666,,,
4.9719999998,621,0.9007305324,-0.3522989314,1.8157396315,,,
4.9759999998,622,3.4520023011,2.4520777541,4.2934699625,,,
4.9799999997,622,5.1536088331,4.3161074823,6.0176732190,,,
4.9839999999,623,5.1171533636,4.3377442557,5.8786607637,,,
4.9879999999,623,4.0216725919,3.2606431255,4.3713951576,,,
4.9919999999,624,2.6085165539,1.9622437183,2.3895006244,,,
4.9959999998,624,0.8114916134,0.4723830244,0.1707180754,32775:33282,4.9987339457:4.9987904429,0.0000000000:0.0000000000
5.0000000000,625,-1.1928482228,-1.1005556910,-2.0366827401,,,
5.0040000000,625,-2.4323059102,-1.9582971950,-3.3847537257,,,
5.0079999999,626,-2.4267067387,-1.7018255118,-3.4022543529,,,
5.0119999999,626,-2.0078028984,-1.0889798121,-2.8316392118,,,
5.0159999998,627,-2.0366837860,-0.8881436658,-2.6198405565,,,
5.0199999998,627,-2.1825855089,-0.7692032251,-2.6350572504,,,
5.0240000000,628,-1.8164935733,-0.1767867731,-2.2190320804,,,
5.0279999999,628,-1.2131343913,0.5283120380,-1.4084426146,,,
5.0319999999,629,-0.8226121900,0.8408830858,-0.6083800239,,,
5.0359999998,629,-0.1295382503,1.2923848325,0.4344104927,,,
5.0399999998,630,1.5436167156,2.6515623921,2.1805145192,,,
5.0439999998,630,3.5902285128,4.3845126713,4.0664423901,,,
5.0480000000,631,4.6683241344,5.0786606671,4.8355242049,,,
5.0519999999,631,4.3470965867,4.1181203352,4.0376432206,,,
5.0559999999,632,3.0457097273,1.8350438108,2.2076941459,,,
5.0599999998,632,0.7347313936,-1.6277466598,-0.3131924029,,,
5.0639999998,633,-2.8641595754,-6.1927647589,-3.5416672535,,,
5.0679999997,633,-6.8475827892,-10.6154844412,-6.7280073479,,,
5.0719999999,634,-9.3061773351,-12.8009342313,-8.3044652973,,,
5.0759999999,634,-9.2508256468,-11.7950442640,-7.4934088722,,,
5.0799999998,635,-7.3474614102,-8.5202202981,-5.1227673148,,,
5.0839999998,635,-4.5691666063,-4.3226954427,-2.4190801837,,,
5.0880000000,636,-1.2936515830,0.1165002386,0.1346180243,,,
5.0919999999,636,1.9444042071,4.1452674852,2.3113484221,,,
5.0959999999,637,4.1563575811,6.7745873039,3.5977087548,,,
5.0999999999,637,5.1080446120,7.7649530953,3.9491646226,,,
5.1039999998,638,5.7562559953,8.0935553322,4.2337140239,,,
5.1079999998,638,6.7100056102,8.5206264421,5.0315860332,,,
5.1120000000,639,7.2340621669,8.5274150656,5.6537536162,,,
5.1159999999,639,6.5475314665,7.4250385371,5.1776715332,,,
5.1199999999,640,5.1185151163,5.6252925299,3.8187737509,,,
5.1239999998,640,3.7739452708,3.9083665310,2.4099229790,,,
5.1279999998,641,2.4532613460,2.2402485233,1.1568265146,,,
5.1319999998,641,0.8708922825,0.3408668535,-0.0999102473,,,
5.1359999999,642,-0.4418403604,-1.3070630024,-0.9692879427,,,
5.1399999999,642,-0.9392934254,-2.1588335752,-0.9973534177,,,
5.1439999999,643,-1.2307060697,-2.7318615963,-0.6982989232,,,
5.1479999998,643,-2.2279399160,-3.8690035091,-0.9862770336,,,
5.1519999998,644,-3.6130087116,-5.3049668081,-1.7881161154,,,
5.1559999997,644,-4.3673704422,-6.1043307970,-2.2849814222,,,
5.1599999999,645,-4.4665407697,-6.2061930212,-2.3953656789,,,
5.1639999999,645,-4.7368249149,-6.3015215575,-2.8387143748,,,
5.1679999998,646,-5.1916670422,-6.3151812836,-3.6570536596,,,
5.1719999998,646,-4.9056987750,-5.3550526813,-3.9040281717,,,
5.1760000000,647,-3.6203179976,-3.3031987771,-3.1096173348,,,
5.1799999999,647,-2.1283374139,-1.1705055607,-1.9160652364,,,
5.1839999999,648,-0.8500128999,0.4061346352,-0.8677568295,,,
5.1879999998,648,0.6296462940,1.7782044934,0.2867067298,,,
5.1919999998,649,2.2239631335,3.0419758334,1.5515306342,,,
5.1959999998,649,2.8859166524,3.4790909667,2.0641488641,,,
5.2000000000,650,2.1411734678,2.8766831597,1.2890303759,,,
5.2039999999,650,1.0003079445,2.3130924110,0.0076787356,,,
5.2079999999,651,0.6431972987,2.8307799583,-0.6330046785,,,
5.2119999998,651,1.0748835358,4.0984540431,-0.4289255220,,,
5.2159999998,652,1.7238395265,5.0790362977,0.1834692335,,,
5.2199999997,652,2.4148379004,5.2445644828,1.0237117074,,,
5.2239999999,653,2.8719884055,4.3519052019,1.8707082109,,,
5.2279999999,653,2.1868490097,1.9087955222,1.9040121460,,,
5.2319999998,654,0.0339716340,-1.9008770500,0.6237512055,,,
5.2359999998,654,-2.1675794573,-5.2987829576,-0.9729716816,,,
5.2400000000,655,-2.5888698770,-6.2600400074,-1.2873566819,,,
5.2439999999,655,-1.1162527641,-4.6121524510,-0.0455428446,,,
5.2479999999,656,0.9542104038,-1.8083982100,1.6677877399,,,
5.2519999999,656,2.7785284580,0.9347203133,3.0039887876,,,
5.2559999998,657,4.2142177578,3.1098968575,3.8247819534,,,
5.2599999998,657,4.7132716075,4.0472127679,3.8203320917,,,
5.2640000000,658,3.5689876408,3.1700720272,2.5260691308,,,
5.2679999999,658,1.2784720853,1.1919909952,0.4060702308,,,
5.2719999999,659,-0.7216995583,-0.3094099113,-1.2594096233,,,
5.2759999998,659,-1.8702771476,-0.7868748532,-1.9322308661,,,
5.2799999998,660,-2.8235684358,-1.0724430565,-2.2737995865,,,
5.2839999998,660,-3.7825827752,-1.6310800340,-2.6816310683,,,
5.2879999999,661,-3.8296799818,-1.7393804262,-2.4553056487,,,
5.2919999999,661,-2.5046361622,-0.9194323379,-1.0856403861,,,
5.2959999999,662,-0.8284063595,0.0301907910,0.5925444616,,,
5.2999999998,662,-0.0221111781,0.1815069445,1.3559066135,,,
5.3039999998,663,-0.2449127722,-0.3889075285,0.9235186257,,,
5.3079999997,663,-1.2205771469,-1.3084438379,-0.3591935655,,,
5.3119999999,664,-2.9222926247,-2.6574121874,-2.2651489552,,,
5.3159999999,664,-4.7668640855,-4.1450433110,-4.2211423162,,,
5.3199999998,665,-5.2154853750,-4.5258049001,-4.9041423678,,,
5.3239999998,665,-3.3248199095,-2.9263355278,-3.4427161101,,,
5.3280000000,666,-0.0571268375,-0.1480653852,-0.6623954127,,,
5.3319999999,666,2.8618122461,2.2587527937,1.7504190197,,,
5.3359999999,667,4.7451314697,3.6593072809,2.9938947584,,,
5.3399999999,667,5.7274467295,4.2230303658,3.2698508271,,,
5.3439999998,668,5.5683651336,3.8490947555,2.6951825522,,,
5.3479999998,668,4.0243394638,2.4393211989,1.3055653985,,,
5.3520000000,669,1.9727157282,0.8507467676,-0.0922018484,,,
5.3559999999,669,0.7335303878,0.2250336322,-0.4031373619,,,
5.3599999999,670,0.3923356384,0.4378356730,0.3033529827,,,
5.3639999998,670,0.0320190212,0.3972075044,0.9027193928,,,
5.3679999998,671,-0.5454885484,-0.1850090775,0.8508830436,,,
5.3719999997,671,-0.6913074401,-0.5598472505,0.6193206359,,,
5.3759999999,672,-0.4504838194,-0.4753066956,0.4125790678,,,
5.3799999999,672,-0.7123539635,-0.5352576711,-0.2475066980,,,
5.3839999998,673,-1.5439065081,-0.7726165222,-1.2561774312,,,
5.3879999998,673,-1.8081251345,-0.2931265770,-1.5041272415,,,
5.3920000000,674,-0.9242665942,1.1412725810,-0.3909112411,,,
5.3959999999,674,0.2830241436,2.4351055300,1.2422304418,,,
5.3999999999,675,1.0143144393,2.6605124558,2.3147891114,,,
5.4039999999,675,1.5046778457,2.1135487066,2.6929884822,,,
5.4079999998,676,1.9700301526,1.2944921137,2.5654912063,,,
5.4119999998,676,1.7848918209,-0.0070642629,1.6498547165,,,
5.4160000000,677,0.5964136248,-1.8199594714,-0.0893237164,,,
5.4199999999,677,-0.7662887664,-3.2302328228,-1.7203212596,,,
5.4239999999,678,-1.4864730473,-3.5260372553,-2.3615641532,,,
5.4279999998,678,-1.9378070638,-3.2771399932,-2.3295507601,,,
5.4319999998,679,-2.5948088235,-3.2143622210,-2.2852243924,,,
5.4359999998,679,-2.7056100318,-2.8269776887,-1.8883328678,,,
5.4399999999,680,-1.3657347791,-1.2879611760,-0.4812596145,,,
5.4439999999,680,0.7519639921,0.8566738489,1.3711942863,,,
5.4479999999,681,2.0324760028,2.1928041033,2.2610394345,,,
5.4519999998,681,1.8362915292,2.2223414253,1.6486002487,,,
5.4559999998,682,0.6352205794,1.4722708873,0.1459532317,,,
5.4599999997,682,-1.2344314471,0.2455761612,-1.6676647699,,,
5.4639999999,683,-3.5382540814,-1.3844428991,-3.5204332654,,,
5.4679999999,683,-5.1519509150,-2.5543589096,-4.6258510707,,,
5.4719999998,684,-4.6573866674,-2.0465401421,-3.9319116224,,,
5.4759999998,684,-2.1339541300,0.0464093835,-1.5550332308,,,
5.4800000000,685,0.8075389435,2.2238801929,1.0421908141,,,
5.4839999999,685,2.9401157856,3.3635522724,2.6830522402,,,
5.4879999999,686,4.2310664697,3.5397770891,3.3843293103,,,
5.4919999999,686,4.6301425727,2.9023315128,3.3517672145,,,
5.4959999998,687,3.5637532568,1.1394906999,2.2806701209,,,
5.4999999998,687,1.2885945132,-1.3339918328,0.3611857152,,,
5.5040000000,688,-0.5878448476,-2.9500467855,-1.1084682509,,,
5.5079999999,688,-0.8758820150,-2.6772205244,-1.0981598873,,,
5.5119999999,689,-0.1388255369,-1.2577459258,-0.1227791971,,,
5.5159999998,689,0.4900180486,-0.0153685313,0.6752546782,,,
5.5199999998,690,0.8392996437,0.7133339335,1.0283357246,,,
5.5239999997,690,1.2062062935,1.1995956602,1.2878572876,,,
5.5279999999,691,1.2960865067,1.2850275684,1.3641460122,,,
5.5319999999,691,0.7919234760,0.8073102868,1.0024611550,,,
5.5359999998,692,0.3021316231,0.4190706628,0.6585104923,,,
5.5399999998,692,0.5174025979,0.7837802145,0.9373233779,,,
5.5440000000,693,0.8847346015,1.3490358409,1.3762152652,,,
5.5480000000,693,0.3352045686,1.0627751337,0.9055610057,,,
5.5519999999,694,-1.0133003995,0.0123158312,-0.5506550330,,,
5.5559999999,694,-2.1035690834,-0.7924819330,-2.0043573142,,,
5.5599999998,695,-2.6018911550,-1.0370854578,-2.8914450321,,,
5.5639999998,695,-2.9755812115,-1.2514733829,-3.4629183471,,,
5.5680000000,696,-3.0592732982,-1.4403118191,-3.6169700180,,,
5.5719999999,696,-2.0602698730,-0.9767718054,-2.6736212786,,,
5.5759999999,697,-0.1768307848,-0.0314312591,-0.7176701694,,,
5.5799999998,697,1.2351975786,0.2948810009,1.0379603292,,,
5.5839999998,698,1.5008376710,-0.3460163855,1.7902423793,,,
5.5879999998,698,1.3742168153,-0.9576117366,2.0404951949,,,
5.5919999999,699,1.5672102894,-0.7340545124,2.4210425000,,,
5.5959999999,699,1.7849081758,-0.0480249586,2.6477077812,,,
5.5999999999,700,1.7200266477,0.5866260906,2.3047082531,,,
5.6039999998,700,1.7357432265,1.3306409160,1.6993123460,,,
5.6079999998,701,1.8254871779,2.0767257382,1.1108521750,,,
5.6119999997,701,1.0362273873,1.8328150091,0.0272336093,,,
5.6159999999,702,-1.1214595435,0.0593158283,-1.9119233156,,,
5.6199999999,702,-3.5553917226,-2.1749165453,-3.8450924134,,,
5.6239999998,703,-4.7939968907,-3.3362915390,-4.5392247804,,,
5.6279999998,703,-4.5114814001,-3.0325044456,-3.8054897901,,,
5.6320000000,704,-3.0390717678,-1.6412303464,-2.1919430136,,,
5.6359999999,704,-0.4061645851,0.7026443868,0.0671929515,,,
5.6399999999,705,2.9273876540,3.5444786953,2.6824211755,,,
5.6439999999,705,5.2144518853,5.2945122500,4.4258212357,,,
5.6479999998,706,4.7762717833,4.4473247805,3.9622006342,,,
5.6519999998,706,2.0035241383,1.4647222925,1.5589504389,,,
5.6560000000,707,-1.0724624810,-1.6478228628,-1.0386533082,,,
5.6599999999,707,-2.9380272658,-3.4571371771,-2.4396040733,,,
5.6639999999,708,-3.3140329982,-3.7925139805,-2.4308113155,,,
5.6679999998,708,-2.2215742691,-2.7656552261,-1.1941097433,,,
5.6719999998,709,0.1355953129,-0.5888412185,1.0069533711,,,
5.6759999997,709,2.5362685078,1.5987555188,3.1591214282,,,
5.6799999999,710,3.2684043422,2.1668826577,3.7608424439,,,
5.6839999999,710,1.9452843048,0.7362325946,2.3473330388,,,
5.6879999998,711,-0.2066268452,-1.4674365632,-0.0350097036,,,
5.6919999998,711,-2.0739191787,-3.2438319451,-2.2289091161,,,
5.6960000000,712,-3.5251569503,-4.3433735617,-3.9420441508,,,
5.7000000000,712,-4.2955206039,-4.5017255155,-4.9432014322,,,
5.7039999999,713,-3.4318494736,-2.9200037866,-4.4276451744,,,
5.7079999999,713,-0.7033790574,0.4283741354,-2.1018521372,,,
5.7119999998,714,2.4982679946,3.9817351078,0.8813701535,,,
5.7159999998,714,4.6083203308,6.0734163120,3.0463322092,,,
5.7200000000,715,5.4064439433,6.5231387457,4.0927708572,,,
5.7239999999,715,5.2987182927,5.9549564492,4.4527907589,,,
5.7279999999,716,4.1265858276,4.4558135968,4.0749634802,,,
5.7319999998,716,1.8449757337,2.0312361838,2.7558072698,,,
5.7359999998,717,-0.4341597096,-0.3698363003,1.1708389152,,,
5.7399999998,717,-1.4096559233,-1.6043370807,0.3562531875,,,
5.7439999999,718,-1.1773770587,-1.7341168444,0.3392880851,,,
5.7479999999,718,-0.7470614306,-1.5942979846,0.2931719713,,,
5.7519999999,719,-0.4273290583,-1.3476901039,-0.1028894415,,,
5.7559999998,719,0.1129339278,-0.6081441559,-0.4707718883,,,
5.7599999998,720,0.5324329598,0.2662729022,-0.8089440269,,,
5.7639999997,720,-0.0414148388,0.2798023674,-1.6353767387,,,
5.7679999999,721,-1.5564711187,-0.7447479543,-2.8878475638,,,
5.7719999999,721,-3.0018913023,-1.9803217723,-3.7682468007,,,
5.7759999998,722,-3.9466054781,-2.9994735079,-3.9968169350,,,
5.7799999998,722,-4.8223576625,-4.1222054474,-4.1452109705,,,
5.7840000000,723,-5.5145210383,-5.1304705595,-4.3584295709,,,
5.7879999999,723,-5.1151586339,-5.0147503154,-3.8870244440,,,
5.7919999999,724,-3.4811883683,-3.4990917924,-2.3871626060,,,
5.7959999999,724,-1.7099148686,-1.6105464259,-0.6244120909,,,
5.7999999998,725,-0.5566357430,-0.1930992968,0.6887001251,,,
5.8039999998,725,0.4118536033,1.0147129325,1.7743674681,,,
5.8080000000,726,1.5556037401,2.2559026722,2.8751755139,,,
5.8119999999,726,2.3163974361,2.9239899622,3.4370361166,,,
5.8159999999,727,2.3891087473,2.6897023249,3.0547682638,,,
5.8199999998,727,2.6139559291,2.4284007298,2.4657870504,,,
5.8239999998,728,3.7335546705,3.0344423604,2.6353169209,,,
5.8279999997,728,5.0898642456,4.0616391708,3.3646337251,,,
5.8319999999,729,5.5791981850,4.5121580240,3.7727930232,,,
5.8359999999,729,5.2121604672,4.2946715560,3.6966355770,,,
5.8399999999,730,4.6354301130,3.8464984707,3.5347292055,,,
5.8439999998,730,3.7725219180,2.9456969618,3.1013194364,,,
5.8480000000,731,2.1799903798,1.1194515825,1.8237922339,,,
5.8520000000,731,0.2744029294,-1.1319646639,-0.0877172380,,,
5.8559999999,732,-1.0559002189,-2.7011756665,-1.7479019519,,,
5.8599999999,732,-1.7962579950,-3.2933233633,-2.8204145298,,,
5.8639999998,733,-2.5390767789,-3.3591689481,-3.6033686351,,,
5.8679999998,733,-3.0777930215,-2.8160894799,-3.9279554779,,,
5.8720000000,734,-2.6409408085,-1.2111488289,-3.1785987784,,,
5.8759999999,734,-1.5099483698,0.8138422955,-1.6215573201,,,
5.8799999999,735,-0.9941686629,1.6433395154,-0.5503110207,,,
5.8839999998,735,-1.5819294610,0.6210016086,-0.6876919357,,,
5.8879999998,736,-2.3602298593,-1.2525556543,-1.3789670691,,,
5.8919999998,736,-2.5543491559,-2.8423862476,-1.7657775001,,,
5.8959999999,737,-2.4580004022,-3.9801643429,-1.8349582335,,,
5.8999999999,737,-2.4479545667,-4.6915271853,-1.8102955208,,,
5.9039999999,738,-2.2724661860,-4.5567256692,-1.4517026088,,,
5.9079999998,738,-1.8975976979,-3.5212648816,-0.6851489007,,,
5.9119999998,739,-1.8876455665,-2.2995546321,-0.1113854940,,,
5.9159999997,739,-2.1503631844,-1.1817403969,-0.0287789518,,,
5.9199999999,740,-1.3870489801,0.6282959948,0.3647324015,,,
5.9239999999,740,1.2059063067,3.6091518423,1.8691235014,,,
5.9279999998,741,4.5320899564,6.7111344396,3.9504868618,,,
5.9319999998,741,6.8292897807,8.4900503597,5.4097466808,,,
5.9360000000,742,7.4660054771,8.6552525697,5.7948749262,,,
5.9399999999,742,6.5710452270,7.5231006607,5.1851940549,,,
5.9439999999,743,3.8920729568,4.8011631665,3.2011480349,,,
5.9479999999,743,-0.5703636277,0.2288574843,-0.4972219380,,,
5.9519999998,744,-5.3488371654,-5.0392219333,-4.9383233438,,,
5.9559999998,744,-8.3456536838,-8.9788426456,-8.2256319698,,,
5.9600000000,745,-8.7636258118,-10.4976249353,-9.2532609792,,,
5.9639999999,745,-7.2030122231,-9.7354289124,-8.1955630123,,,
5.9679999999,746,-4.2135807119,-6.9477206126,-5.4645713418,,,
5.9719999998,746,-0.0668799426,-2.4115241014,-1.3571787473,,,
5.9759999998,747,4.1470907169,2.5949040812,3.1072639195,,,
5.9799999997,747,6.6939073343,6.1229145519,6.2344309978,,,
5.9839999999,748,6.8950821732,7.3036510226,7.1288487007,,,
5.9879999999,748,5.6194426227,6.8252898717,6.3449131695,,,
5.9919999999,749,3.8300256803,5.4809456881,4.7463179391,,,
5.9959999998,749,1.7543570796,3.3653454274,2.6285994106,,,
6.0000000000,750,-0.2177843761,0.8207565160,0.3769172245,,,
6.0040000000,750,-1.1478644997,-1.1025632446,-1.0568764643,,,
6.0079999999,751,-0.7767538910,-1.8493465212,-1.1325290007,,,
6.0119999999,751,-0.0740628398,-2.0281854738,-0.4569346748,,,
6.0159999998,752,0.1751663964,-2.1862532508,0.1720526020,,,
6.0199999998,752,0.3399461834,-1.9001486630,0.7515828828,,,
6.0240000000,753,0.7584228429,-0.8692576008,1.3737747258,,,
6.0279999999,753,0.6589252935,0.0579225769,1.3276782212,,,
6.0319999999,754,-0.6945513575,-0.0323115773,-0.0591813115,,,
6.0359999998,754,-2.5960148903,-0.7324511356,-2.1657668914,,,
6.0399999998,755,-3.7252311611,-1.0325110091,-3.6702531180,,,
6.0439999998,755,-3.7443776114,-0.7845185858,-4.0359734833,,,
6.0480000000,756,-3.0418607490,-0.3904457392,-3.5025206852,,,
6.0519999999,756,-1.5864045204,0.3434702021,-2.0829753130,,,
6.0559999999,757,0.6376572845,1.7391297260,0.2245186710,,,
6.0599999998,757,2.4787559189,2.9716672811,2.4093820847,,,
6.0639999998,758,2.3959534361,2.6501096811,2.9390991973,,,
6.0679999997,758,0.3979679621,0.6715471772,1.4995040480,,,
6.0719999999,759,-2.0098700030,-1.7006671727,-0.7455632797,,,
6.0759999999,759,-3.7561917502,-3.5843471628,-2.7178528743,,,
6.0799999998,760,-4.8180468394,-5.0486998608,-4.1679498269,,,
6.0839999998,760,-4.9566472435,-5.8777440097,-4.7420735647,,,
6.0880000000,761,-3.4093520201,-5.2056369730,-3.6549749096,,,
6.0919999999,761,-0.3313641016,-2.9051075851,-0.9468966837,,,
6.0959999999,762,2.7798648210,-0.1434414646,1.9640270707,,,
6.0999999999,762,4.7914333762,2.1108274366,3.7794253093,,,
6.1039999998,763,6.0113847501,4.1108644728,4.6039989962,,,
6.1079999998,763,6.9367085311,6.1661201675,5.0360241435,,,
6.1120000000,764,7.0727068603,7.5057618389,4.8660661164,,,
6.1159999999,764,5.8973630106,7.2570260540,3.6590508739,,,
6.1199999999,765,4.0034182769,5.7125589631,1.9018008876,,,
6.1239999998,765,2.2348349118,3.6605657764,0.4630664038,,,
6.1279999998,766,0.5101959854,1.2583594087,-0.5758021815,,,
6.1319999998,766,-1.4373754447,-1.3945450572,-1.5243015695,,,
6.1359999999,767,-2.9354134946,-3.3379636708,-2.0318691482,,,
6.1399999999,767,-3.1823385750,-3.6449156641,-1.5500230316,,,
6.1439999999,768,-2.6117179591,-2.7952903514,-0.4961712732,,,
6.1479999998,768,-2.2773479693,-2.0620619863,0.1420572933,,,
6.1519999998,769,-2.3052642326,-1.8764483743,0.1806418575,,,
6.1559999997,769,-2.1372500588,-1.8594638904,0.1868676968,,,
6.1599999999,770,-1.9487471454,-2.0808424128,0.1942061377,,,
6.1639999999,770,-2.4571956162,-2.9543225894,-0.3897994740,,,
6.1679999998,771,-3.4323337721,-4.0006026296,-1.5328722241,,,
6.1719999998,771,-3.7699895414,-4.0785714186,-2.3802598721,,,
6.1760000000,772,-3.1499129283,-3.0038440717,-2.5606775182,,,
6.1799999999,772,-2.3457888189,-1.7437345831,-2.6176744393,,,
6.1839999999,773,-1.7212734133,-0.8178320981,-2.7899663610,,,
6.1879999998,773,-0.7570597155,0.2578417620,-2.4597280037,,,
6.1919999998,774,0.6015373876,1.6367529815,-1.3236273989,,,
6.1959999998,774,1.5059666036,2.5795158182,-0.0612100648,,,
6.2000000000,775,1.6554031217,2.7719661510,0.7882350078,,,
6.2039999999,775,1.9148391581,2.9659368453,1.6309257568,,,
6.2079999999,776,2.8048404582,3.5896559257,2.7726461945,,,
6.2119999998,776,3.5315153104,3.8522028996,3.4911734744,,,
6.2159999998,777,3.3244154974,3.0763948548,3.0518608065,,,
6.2199999997,777,2.6799482580,1.9034059760,1.9100336763,,,
6.2239999999,778,2.3316790903,1.2229879695,0.9637328045,,,
6.2279999999,778,1.9347117949,0.8013323738,0.2342078503,,,
6.2319999998,779,0.8435418588,-0.0069167620,-0.7342955866,,,
6.2359999998,779,-0.5902634278,-0.9697840170,-1.7017502605,,,
6.2400000000,780,-1.6050218644,-1.5009462706,-2.0271468683,,,
6.2439999999,780,-2.2503489303,-1.8173521520,-1.7712868451,,,
6.2479999999,781,-2.8532517903,-2.3717313523,-1.4199694911,,,
6.2519999999,781,-2.7881409928,-2.5715233626,-0.7313969328,,,
6.2559999998,782,-1.1392714227,-1.3895322463,0.9543663437,,,
6.2599999998,782,1.5718739007,0.8692852476,3.2380862213,,,
6.2640000000,783,3.6248243397,2.6722792309,4.6710090178,,,
6.2679999999,783,4.0810104787,3.1347018231,4.4486485936,,,
6.2719999999,784,3.3779623165,2.6326107093,3.0967159162,,,
6.2759999998,784,2.0588272705,1.6069954417,1.3555000384,,,
6.2799999998,785,0.2597826103,0.0674715006,-0.5251783711,,,
6.2839999998,785,-1.4328946928,-1.5409647715,-2.1430660773,,,
6.2879999999,786,-2.0327180502,-2.2949584359,-2.7834816575,,,
6.2919999999,786,-1.5269898103,-2.0894470097,-2.4631513959,,,
6.2959999999,787,-1.0352463121,-1.8608924854,-2.1488671589,,,
6.2999999998,787,-1.1157779484,-2.0252263383,-2.3216774612,,,
6.3039999998,788,-1.0747433737,-1.8403308758,-2.2525972387,,,
6.3079999997,788,-0.5045424223,-0.9214543669,-1.3677072026,,,
6.3119999999,789,-0.2493204290,-0.1916370574,-0.3791283383,,,
6.3159999999,789,-1.0589504249,-0.5331408337,-0.2595290193,,,
6.3199999998,790,-2.3959938154,-1.5380408661,-0.9295600900,,,
6.3239999998,790,-3.4037800875,-2.3810291905,-1.7605214279,,,
6.3280000000,791,-4.0232275109,-2.9376809478,-2.5627036526,,,
6.3319999999,791,-4.2574396485,-3.1584160236,-3.1628984718,,,
6.3359999999,792,-3.3497098827,-2.2742662093,-2.7279323458,,,
6.3399999999,792,-0.8728758095,0.1966937583,-0.6461570172,,,
6.3439999998,793,2.0413905510,3.2004648173,2.2515032923,,,
6.3479999998,793,3.7471074468,5.0436210972,4.3584347186,,,
6.3520000000,794,3.9316250029,5.2228559856,4.9908337308,,,
6.3559999999,794,3.3897852457,4.3985589371,4.5503935200,,,
6.3599999999,795,2.4954837365,3.0242948263,3.3376452782,,,
6.3639999998,795,1.1710281030,1.2354104332,1.3771412250,,,
6.3679999998,796,0.0217693533,-0.1987604311,-0.6481269972,,,
6.3719999997,796,0.0587612657,-0.2359100161,-1.5368608745,,,
6.3759999999,797,1.2140302530,0.9638163575,-0.9698385983,,,
6.3799999999,797,2.3550189836,2.0853860845,0.1759822864,,,
6.3839999998,798,2.9288337724,2.3899253127,1.1726782971,,,
6.3879999998,798,3.3583937471,2.2534560653,2.0690250063,,,
6.3920000000,799,3.5957333891,1.7922851177,2.6614518554,,,
6.3959999999,799,2.7033855520,0.3539142466,2.0731759526,,,
6.3999999999,800,0.4209707837,-2.0819430720,0.0567742364,,,
6.4039999999,800,-2.1245511241,-4.2905838687,-2.2745055423,,,
6.4079999998,801,-3.9300776370,-5.3193477920,-3.7620038145,,,
6.4119999998,801,-5.1446621989,-5.5042881384,-4.3756027386,,,
6.4160000000,802,-5.9065203189,-5.2877606950,-4.3905930974,,,
6.4199999999,802,-5.4613551865,-4.2224848539,-3.4275755315,,,
6.4239999999,803,-3.4422535087,-2.0731428219,-1.3118033886,,,
6.4279999998,803,-0.9868546331,0.1211551002,0.9097038685,,,
6.4319999998,804,0.5059169189,1.1753183730,1.9248555457,,,
6.4359999998,804,0.9622639343,1.2323555229,1.6630585494,,,
6.4399999999,805,0.9898274537,1.1013128463,0.9026340542,,,
6.4439999999,805,0.4715427011,0.8101711071,-0.1208232492,,,
6.4479999999,806,-0.9425032022,-0.0253794127,-1.5999336215,,,
6.4519999998,806,-2.4816284378,-0.8988125123,-2.9650109949,,,
6.4559999998,807,-2.7219009568,-0.7407156639,-3.0344043426,,,
6.4599999997,807,-1.2550669377,0.6236669922,-1.4385662384,,,
6.4639999999,808,1.1495253196,2.4156029294,1.0300413352,,,
6.4679999999,808,3.8179986393,4.1417302547,3.5131988488,,,
6.4719999998,809,6.4122752615,5.7466574613,5.5612484118,,,
6.4759999998,809,8.0238319080,6.6037488539,6.4827155207,,,
6.4800000000,810,7.4915541275,5.7148549882,5.4763341556,,,
6.4839999999,810,4.9840618649,3.2298926711,2.8934288785,,,
6.4879999999,811,2.1078568804,0.6137460727,0.3699804483,,,
6.4919999999,811,0.0925777099,-1.0543779031,-0.8385956601,,,
6.4959999998,812,-1.0874880150,-1.9099458610,-0.8695945198,,,
6.4999999998,812,-1.5962547189,-2.2055005134,-0.3050111219,,,
6.5040000000,813,-1.1335186605,-1.6824432085,0.6951447789,,,
6.5079999999,813,-0.0530330413,-0.6173211302,1.7165503594,,,
6.5119999999,814,0.2485493156,-0.2591583789,1.6602797214,,,
6.5159999998,814,-0.9854346368,-1.3092508728,-0.0108911528,,,
6.5199999998,815,-2.7534336297,-2.8522719103,-2.2793765754,,,
6.5239999997,815,-3.7005948065,-3.6431980354,-3.7131333948,,,
6.5279999999,816,-3.7665684775,-3.6497208177,-4.0630053593,,,
6.5319999999,816,-3.6080236607,-3.4651285369,-3.9559135984,,,
6.5359999998,817,-3.2850530270,-3.0102664528,-3.6191409440,,,
6.5399999998,817,-2.6060252608,-1.9282913949,-2.9166908402,,,
6.5440000000,818,-2.0730376174,-0.6848061118,-2.2157475741,,,
6.5480000000,818,-2.2060107705,-0.0329400846,-2.0323545113,,,
6.5519999999,819,-2.3528031557,0.2793364453,-1.9583711032,,,
6.5559999999,819,-1.4789338580,1.0260045085,-1.0933551166,,,
6.5599999998,820,0.0932823928,1.9425623148,0.4399505137,,,
6.5639999998,820,0.9960020758,1.9229814215,1.4871045410,,,
6.5680000000,821,0.7234397902,0.7315602472,1.4393687715,,,
6.5719999999,821,-0.0028917697,-0.6949642139,0.7846989907,,,
6.5759999999,822,-0.6542676912,-1.6724742002,0.0132226628,,,
6.5799999998,822,-1.3217936413,-2.2604935976,-0.8759407664,,,
6.5839999998,823,-1.6462749441,-2.2385251846,-1.5235768239,,,
6.5879999998,823,-0.7495953521,-0.9664876866,-1.0614685772,,,
6.5919999999,824,1.3392882760,1.3231558532,0.6304107773,,,
6.5959999999,824,3.4021274557,3.3213830127,2.4838493321,,,
6.5999999999,825,4.6461924006,4.2608600721,3.6240272691,,,
6.6039999998,825,5.4703930226,4.6728912569,4.3031474000,,,
6.6079999998,826,6.1509785930,5.0335779231,4.9058769910,,,
6.6119999997,826,5.9965090243,4.7843389542,4.9921567213,,,
6.6159999999,827,4.5758967221,3.4250914620,4.1240754987,,,
6.6199999999,827,2.7073549207,1.5701341892,2.8202557988,,,
6.6239999998,828,1.2837937026,0.0153211751,1.7454225193,,,
6.6279999998,828,0.0203177963,-1.4079638619,0.6067183597,,,
6.6320000000,829,-1.6150566140,-3.0681295888,-1.1331339880,,,
6.6359999999,829,-3.0471442257,-4.3514030044,-2.9603658784,,,
6.6399999999,830,-3.3437342649,-4.3640006687,-3.7981747720,,,
6.6439999999,830,-2.7255745121,-3.3314029412,-3.4780125703,,,
6.6479999998,831,-2.1542170629,-2.2237311682,-2.7236900324,,,
6.6519999998,831,-1.8720384718,-1.3809708856,-1.9257648641,,,
6.6560000000,832,-1.5325344094,-0.5903647387,-1.0015425697,,,
6.6599999999,832,-1.3738044668,-0.1437687006,-0.3119591912,,,
6.6639999999,833,-1.9336239611,-0.5491272308,-0.5183352538,,,
6.6679999998,833,-2.7904825205,-1.3446466735,-1.4354942845,,,
6.6719999998,834,-2.9369278738,-1.4809825964,-2.1353303435,,,
6.6759999997,834,-2.3942019534,-0.9113339852,-2.3564233005,,,
6.6799999999,835,-2.1348067254,-0.5721949938,-2.7050883121,,,
6.6839999999,835,-2.3179178557,-0.6916284743,-3.2280197721,,,
6.6879999998,836,-1.9681163620,-0.4099163614,-2.9746018505,,,
6.6919999998,836,-0.6739089680,0.6430372521,-1.4471876697,,,
6.6960000000,837,0.7193828381,1.6583257223,0.5583511988,,,
6.7000000000,837,1.5555783123,2.0052671017,2.1282618705,,,
6.7039999999,838,2.2409984817,2.1056182769,3.2892148340,,,
6.7079999999,838,3.0498933258,2.3275900153,4.2251562744,,,
6.7119999998,839,3.3110719594,2.1582171276,4.4307150955,,,
6.7159999998,839,2.6824264421,1.3433050669,3.6038919308,,,
6.7200000000,840,2.1147036927,0.8056241033,2.5634976298,,,
6.7239999999,840,2.4934258779,1.3876914797,2.2208725459,,,
6.7279999999,841,3.2276312046,2.4900310427,2.2458084107,,,
6.7319999998,841,3.1792659893,2.9160973631,1.7010553480,,,
6.7359999998,842,2.1884901681,2.3589647139,0.4529853338,,,
6.7399999998,842,0.7058675952,1.1366694856,-0.9937329865,,,
6.7439999999,843,-1.2700298469,-0.7874336577,-2.5376244540,,,
6.7479999999,843,-3.6568113022,-3.3071360355,-4.2194766086,,,
6.7519999999,844,-5.2730457147,-5.1958694636,-5.2380043312,,,
6.7559999998,844,-4.7482406679,-4.9922412322,-4.4727790326,,,
6.7599999998,845,-2.2904367781,-2.7940217113,-2.0291683033,,,
6.7639999997,845,0.5898152899,-0.0924492153,0.7638951206,,,
6.7679999999,846,2.9356856597,2.0501901928,2.9487310098,,,
6.7719999999,846,4.7172755560,3.5180612811,4.5063712123,,,
6.7759999998,847,5.5236418210,3.9890060275,5.2715490053,,,
6.7799999998,847,4.4533415028,2.7774976684,4.5562369299,,,
6.7840000000,848,1.6884657189,0.2281987705,2.3606633605,,,
6.7879999999,848,-1.1474259374,-2.0183684352,-0.0911275031,,,
6.7919999999,849,-2.7514708467,-2.7727007746,-1.6776310730,,,
6.7959999999,849,-3.2141951802,-2.3594404771,-2.4215738614,,,
6.7999999998,850,-2.9838805704,-1.5382085646,-2.6899351918,,,
6.8039999998,850,-2.0632486451,-0.5247683187,-2.3470631893,,,
6.8080000000,851,-0.8617973422,0.3379843600,-1.4356930620,,,
6.8119999999,851,-0.5594078741,0.1685287876,-0.7855969689,,,
6.8159999999,852,-1.6614161841,-1.2434756138,-1.0317750278,,,
6.8199999998,852,-3.0889765235,-2.6807539978,-1.6606503438,,,
6.8239999998,853,-3.5872404353,-2.9033027901,-1.8749178505,,,
6.8279999997,853,-3.2497628400,-2.1441909599,-1.8158868853,,,
6.8319999999,854,-2.7919233872,-1.3449926261,-2.0138879980,,,
6.8359999999,854,-2.1765431448,-0.6535865982,-2.1808892005,,,
6.8399999999,855,-1.0578703796,0.2774618316,-1.6312654257,,,
6.8439999998,855,0.1167726305,1.1632679253,-0.5395238197,,,
6.8480000000,856,0.7195159675,1.4951432464,0.3447344050,,,
6.8520000000,856,1.2187885887,1.6953909229,1.0286057266,,,
6.8559999999,857,2.5332510716,2.5886761124,2.1547239305,,,
6.8599999999,857,4.2980244065,3.8203653478,3.5649291826,,,
6.8639999998,858,5.0595317830,4.0183789742,4.1549437956,,,
6.8679999998,858,4.1919919159,2.5985156635,3.3702120507,,,
6.8720000000,859,2.4029650116,0.2742674601,1.8061470272,,,
6.8759999999,859,0.3253585311,-2.2585817058,0.0763500289,,,
6.8799999999,860,-2.0220771866,-4.8316589347,-1.8256100010,,,
6.8839999998,860,-4.1299189843,-6.7713412350,-3.6257712748,,,
6.8879999998,861,-4.7572133324,-6.7472029455,-4.3342668184,,,
6.8919999998,861,-3.4071879828,-4.3185553010,-3.4139370844,,,
6.8959999999,862,-0.9857973602,-0.6527225814,-1.5532806366,,,
6.8999999999,862,1.5226354705,2.8574040698,0.3656286786,,,
6.9039999999,863,3.9477945725,5.7275623911,2.2333789380,,,
6.9079999998,863,6.0258201320,7.6855245348,4.0319658543,,,
6.9119999998,864,6.9173777026,8.1378208427,5.1667949941,,,
6.9159999997,864,6.4610522666,7.2041343612,5.3376444192,,,
6.9199999999,865,5.7843211222,6.1796210513,5.2515345956,,,
6.9239999999,865,5.7010119963,5.9249839852,5.5108621133,,,
6.9279999998,866,5.4108378259,5.6116254704,5.4416471977,,,
6.9319999998,866,3.7502665085,4.0030512850,4.0038480106,,,
6.9360000000,867,0.8942671932,1.2042716990,1.3414925769,,,
6.9399999999,867,-2.2006374058,-1.8206020581,-1.5578274495,,,
6.9439999999,868,-5.2074397485,-4.6612113121,-4.2432773163,,,
6.9479999999,868,-8.0529750145,-7.2157997130,-6.7092560724,,,
6.9519999998,869,-9.8434848325,-8.7281425675,-8.3307875246,,,
6.9559999998,869,-9.6516563450,-8.4980611724,-8.2256232137,,,
6.9600000000,870,-8.0864841513,-7.2602097200,-6.6510707669,,,
6.9639999999,870,-6.7229641126,-6.5240818044,-4.8714909691,,,
6.9679999999,871,-6.0720069866,-6.6056158384,-3.5324156987,,,
6.9719999998,871,-5.3530034898,-6.4907442646,-2.2387030154,,,
6.9759999998,872,-4.1800222927,-5.5921869775,-0.8627277176,,,
6.9799999997,872,-3.0762106584,-4.3552209406,-0.0492206647,,,
6.9839999999,873,-2.1586164112,-3.0019053317,-0.0187260644,,,
6.9879999999,873,-0.7098113170,-1.0325663148,0.0134847855,,,
6.9919999999,874,1.5087318093,1.5946479916,0.6574568896,,,
6.9959999998,874,3.7214405830,3.9842393218,1.5228715299,,,
7.0000000000,875,5.4023423144,5.5674913247,2.1366891972,,,
7.0040000000,875,6.9209007950,6.7838639245,2.7608965851,,,
7.0079999999,876,8.3446495448,7.8973231310,3.5920340960,,,
7.0119999999,876,8.7632413242,8.2172508179,4.0082575431,,,
7.0159999998,877,7.6329403795,7.2884800426,3.4991092565,,,
7.0199999998,877,5.8156520414,5.8824367229,2.6616849259,,,
7.0240000000,878,4.4068160811,4.9007321702,2.3686775246,,,
7.0279999999,878,3.4170523300,4.1300672088,2.5508372168,,,
7.0319999999,879,2.4885229429,3.0158442121,2.6963750123,,,
7.0359999998,879,1.9701200019,1.8710385185,2.9256587978,,,
7.0399999998,880,2.1502862583,1.2274259378,3.5081407998,,,
7.0439999998,880,2.1491613845,0.6142284830,3.7725769853,,,
7.0480000000,881,0.8435999386,-0.8099570560,2.6860554380,,,
7.0519999999,881,-1.4978558147,-2.7850757023,0.3797335390,,,
7.0559999999,882,-3.6334702658,-4.2747834219,-1.9440149031,,,
7.0599999998,882,-5.0350844254,-4.9915742280,-3.5309585957,,,
7.0639999998,883,-5.9905010505,-5.4312739077,-4.4797730638,,,
7.0679999997,883,-6.3764336452,-5.6068962676,-4.7616440511,,,
7.0719999999,884,-5.7263316048,-5.0374828023,-4.0874709693,,,
7.0759999999,884,-4.4757776967,-3.9690302444,-2.9196656055,,,
7.0799999998,885,-3.7652244247,-3.2922249667,-2.4007638699,,,
7.0839999998,885,-3.7980860772,-3.0693648166,-2.8578042447,,,
7.0880000000,886,-3.5994680773,-2.3620148681,-3.3528485160,,,
7.0919999999,886,-2.6500826708,-0.8174243914,-3.1060576260,,,
7.0959999999,887,-1.5736540356,0.7063159319,-2.4318840545,,,
7.0999999999,887,-0.8551507758,1.4879510972,-1.8165601523,,,
7.1039999998,888,-0.0978259168,1.8101396068,-1.0410467846,,,
7.1079999998,888,0.8680511827,1.9587970429,0.0737047651,,,
7.1120000000,889,1.3089385824,1.4968872200,0.9096712524,,,
7.1159999999,889,0.8480388929,0.3309541046,0.9493906789,,,
7.1199999999,890,0.3997562715,-0.5044956023,0.7669460734,,,
7.1239999998,890,0.8953124647,-0.1148000259,1.1774075710,,,
7.1279999998,891,1.9301216832,0.9683273416,1.9654319062,,,
7.1319999998,891,2.6477508360,1.7018017814,2.4230094158,,,
7.1359999999,892,3.1110946092,1.9644186027,2.5934103122,,,
7.1399999999,892,3.6742337884,2.0599305254,2.9006637559,,,
7.1439999999,893,3.7851891621,1.5871004268,3.0126914825,,,
7.1479999998,893,2.7711058782,0.1314677715,2.2895496851,,,
7.1519999998,894,1.3110256222,-1.4055262038,1.1239016509,,,
7.1559999997,894,0.7415110472,-1.5746925763,0.6158441050,,,
7.1599999999,895,1.1854695819,-0.2842888955,0.9683633936,,,
7.1639999999,895,1.6926212728,1.3205540728,1.3631645782,,,
7.1679999998,896,1.9635541075,2.6499543002,1.4055284077,,,
7.1719999998,896,2.4961990541,3.9777604204,1.4862412062,,,
7.1760000000,897,3.1051947451,5.0621755745,1.6093675176,,,
7.1799999999,897,2.7532497158,4.9216154827,1.0709642976,,,
7.1839999999,898,1.1200268176,3.3098253268,-0.3221262489,,,
7.1879999998,898,-0.8667576295,1.2298834722,-1.7291309279,,,
7.1919999998,899,-2.4207106066,-0.4580488462,-2.4664916410,,,
7.1959999998,899,-3.6550627654,-1.8509893929,-2.8076090870,,,
7.2000000000,900,-4.5417882712,-2.9970337286,-3.0659509620,,,
7.2039999999,900,-4.4318311060,-3.3427142422,-2.8677223054,,,
7.2079999999,901,-3.3140354731,-2.8790875340,-2.0378591393,,,
7.2119999998,901,-2.3683204691,-2.6922657556,-1.3037350276,,,
7.2159999998,902,-2.4056159831,-3.4958242272,-1.2617167486,,,
7.2199999997,902,-2.7063923921,-4.4892831960,-1.3496438881,,,
7.2239999999,903,-2.2609586794,-4.5385665202,-0.7463464038,,,
7.2279999999,903,-1.2451605058,-3.6764287894,0.3149183813,,,
7.2319999998,904,-0.3265176017,-2.5322326088,1.0625136528,,,
7.2359999998,904,0.5626937388,-1.1447145134,1.4287203514,,,
7.2400000000,905,1.6497455763,0.5711575193,1.7815731564,,,
7.2439999999,905,2.3125153723,1.9021450893,1.9145755170,,,
7.2479999999,906,1.8543706301,2.0779795486,1.3657306396,,,
7.2519999999,906,0.7633724334,1.4919936742,0.4469254571,,,
7.2559999998,907,0.0610880218,1.0824442813,-0.0879240349,,,
7.2599999998,907,-0.1943769345,0.8757633896,-0.2555176895,,,
7.2640000000,908,-0.5852576131,0.3126817775,-0.6832046680,,,
7.2679999999,908,-0.8541392240,-0.2720729053,-1.2831804882,,,
7.2719999999,909,-0.1077846789,0.1691675878,-1.2020532527,,,
7.2759999998,909,1.5574050701,1.7464706637,-0.2332407733,,,
7.2799999998,910,2.9918248613,3.4281464511,0.8279324146,,,
7.2839999998,910,3.6667575039,4.5880469872,1.4910182883,,,
7.2879999999,911,4.0739021734,5.4684273566,2.0974641031,,,
7.2919999999,911,4.2654386117,5.8922091928,2.6742041362,,,
7.2959999999,912,3.4104917974,4.8943125248,2.4131781183,,,
7.2999999998,912,1.2805883958,2.1995477761,0.9176996697,,,
7.3039999998,913,-1.0252070178,-1.0000703868,-0.9324596479,,,
7.3079999997,913,-2.4629478532,-3.3819792248,-2.0585964835,,,
7.3119999999,914,-3.1711456324,-4.7417622498,-2.4007565840,,,
7.3159999999,914,-3.6012574592,-5.3343584239,-2.3872796883,,,
7.3199999998,915,-3.5603055814,-5.0028804007,-1.9816864334,,,
7.3239999998,915,-2.9356887654,-3.8364134303,-1.1217443597,,,
7.3280000000,916,-2.4252829970,-2.8109286140,-0.4490917664,,,
7.3319999999,916,-2.5611709702,-2.7340868759,-0.6082204899,,,
7.3359999999,917,-2.7097397402,-3.1049130710,-1.1866373349,,,
7.3399999999,917,-2.0135479988,-2.9172117134,-1.2554301070,,,
7.3439999998,918,-0.7520319085,-2.0795095908,-0.6953278881,,,
7.3479999998,918,0.2274721371,-1.1065413713,-0.0884606254,,,
7.3520000000,919,0.9045848058,0.0743797776,0.4442050880,,,
7.3559999999,919,1.7572234302,1.8108862646,1.2189302665,,,
7.3599999999,920,2.4495511407,3.5215293844,1.9336132970,,,
7.3639999998,920,2.1915135139,4.1217779473,1.8452177282,,,
7.3679999998,921,1.2482702084,3.6055809728,1.0831729020,,,
7.3719999997,921,0.7640331240,2.9900875026,0.6354190711,,,
7.3759999999,922,1.0796539357,2.7026807033,0.8486435702,,,
7.3799999999,922,1.4825151130,2.2689927033,1.0499026590,,,
7.3839999998,923,1.6824251020,1.6765273416,0.9121628964,,,
7.3879999998,923,2.1617520034,1.6572837732,1.0226106891,,,
7.3920000000,924,2.7779036597,2.2244365408,1.6120064359,,,
7.3959999999,924,2.4197573105,2.2248280256,1.8307722491,,,
7.3999999999,925,0.6376257716,0.9386898766,0.9759625746,,,
7.4039999999,925,-1.5461569760,-0.9668807639,-0.4745087040,,,
7.4079999998,926,-3.0444343234,-2.6295594359,-1.7356903440,,,
7.4119999998,926,-3.7965655858,-3.9780713306,-2.7132475324,,,
7.4160000000,927,-3.8341663088,-4.8501943245,-3.3551450142,,,
7.4199999999,927,-2.5583283455,-4.3791762907,-2.9613483709,,,
7.4239999999,928,0.0456496936,-2.2941817384,-1.1884650625,,,
7.4279999998,928,2.5332383640,0.1204268913,0.9410539098,,,
7.4319999998,929,3.4880017420,1.4295912808,2.0945592663,,,
7.4359999998,929,3.1362116219,1.6861535118,2.1997543808,,,
7.4399999999,930,2.4586289008,1.7026742899,1.9825820466,,,
7.4439999999,930,1.5133025411,1.4792578930,1.4980395442,,,
7.4479999999,931,-0.1220595877,0.5625596534,0.3075374434,,,
7.4519999998,931,-1.9286315996,-0.6213907568,-1.2493624284,,,
7.4559999998,932,-2.8955159777,-1.1435186910,-2.2164024874,,,
7.4599999997,932,-3.0248067657,-0.9996543305,-2.3552870216,,,
7.4639999999,933,-3.0076521520,-0.8632846236,-2.1617506774,,,
7.4679999999,933,-2.6289299131,-0.5855433092,-1.5718281466,,,
7.4719999998,934,-1.0092748334,0.6261044787,0.0557422484,,,
7.4759999998,934,1.5303198231,2.4846878282,2.4319474846,,,
7.4800000000,935,3.3547774953,3.5387501514,4.0803278780,,,
7.4839999999,935,3.5160800648,3.0777964549,4.0360134205,,,
7.4879999999,936,2.5516547614,1.8186682491,2.7572668779,,,
7.4919999999,936,1.0973009851,0.4249824198,0.9987449346,,,
7.4959999998,937,-0.8708469728,-1.3054326689,-1.0838673503,,,
7.4999999998,937,-3.0135604365,-3.3310359243,-3.2111556358,,,
7.5040000000,938,-4.2466367044,-4.7390865731,-4.4927482276,,,
7.5079999999,938,-4.0970227527,-4.9210491196,-4.4604426174,,,
7.5119999999,939,-3.3760981020,-4.3623806311,-3.7898370480,,,
7.5159999998,939,-2.7906192878,-3.5627549425,-3.2029634157,,,
7.5199999998,940,-1.8805384184,-2.1360023497,-2.3678676384,,,
7.5239999997,940,-0.1579595663,0.1607651004,-0.7567692962,,,
7.5279999999,941,1.6708758136,2.3791316383,1.0869575871,,,
7.5319999999,941,2.6401709630,3.3985373838,2.1671138620,,,
7.5359999998,942,2.8783820100,3.3545261600,2.4095412537,,,
7.5399999998,942,2.9854483301,3.0752429069,2.4061722086,,,
7.5440000000,943,2.8070881510,2.7206904091,2.2353356160,,,
7.5480000000,943,2.0048032297,2.0538092523,1.6306170112,,,
7.5519999999,944,1.2489249608,1.5109453240,1.0190034074,,,
7.5559999999,944,1.5211303362,1.7365105480,1.2028899483,,,
7.5599999998,945,2.5323957384,2.3242765855,2.0414277853,,,
7.5639999998,945,3.1325851950,2.3079131651,2.5815899037,,,
7.5680000000,946,3.1005545750,1.7901293160,2.5757919592,,,
7.5719999999,946,3.1135424947,1.7149951729,2.6566543473,,,
7.5759999999,947,3.0576277110,2.0390626173,2.8599980055,,,
7.5799999998,947,1.9813815396,1.6155211585,2.3221556999,,,
7.5839999998,948,-0.1692686082,0.0239290439,0.7405783287,,,
7.5879999998,948,-2.2933257838,-1.9055904079,-1.1168877021,,,
7.5919999999,949,-3.7871847061,-3.5495918817,-2.6638731910,,,
7.5959999999,949,-5.0334826059,-5.0702650339,-4.0651703423,,,
7.5999999999,950,-6.0145598315,-6.2766199813,-5.2003359532,,,
7.6039999998,950,-5.8820073718,-6.2893316266,-5.2356749864,,,
7.6079999998,951,-4.4108728615,-4.8787275414,-3.8427650367,,,
7.6119999997,951,-2.6710620661,-3.0447228955,-1.9549542332,,,
7.6159999999,952,-1.6371509415,-1.6792041346,-0.6560953499,,,
7.6199999999,952,-1.1495818264,-0.6001819519,-0.0370758689,,,
7.6239999998,953,-0.8557280107,0.4796560549,0.2163666529,,,
7.6279999998,953,-1.0798470872,1.0525842097,-0.0796122603,,,
7.6320000000,954,-1.8766476890,0.7729568431,-1.0118213380,,,
7.6359999999,954,-2.1667664274,0.4582077487,-1.7083916478,,,
7.6399999999,955,-0.9374347534,1.0795957302,-1.1453224256,,,
7.6439999999,955,1.2817106939,2.3446637138,0.4859207358,,,
7.6479999998,956,3.1695485342,3.2990105812,2.1371453317,,,
7.6519999998,956,4.2808509264,3.7849697005,3.3132399449,,,
7.6560000000,957,4.8978100863,4.1851406360,4.1394856911,,,
7.6599999999,957,4.8320831487,4.2035924516,4.3477198503,,,
7.6639999999,958,3.7341417111,3.2054725705,3.4308520647,,,
7.6679999998,958,2.3258551534,1.5937188075,1.8321587709,,,
7.6719999998,959,1.9496581203,0.5980664545,0.8205631323,,,
7.6759999997,959,2.8097251341,0.6301713797,0.9197415455,,,
7.6799999999,960,3.7988196120,0.9388018122,1.4125910665,,,
7.6839999999,960,4.1073481620,0.9512632781,1.5977371397,,,
7.6879999998,961,3.8096177954,0.7937435100,1.5053293566,,,
7.6919999998,961,2.8091024992,0.3528171415,1.0980168072,,,
7.6960000000,962,0.6556576237,-0.8465651073,-0.0619228604,,,
7.7000000000,962,-2.1434062844,-2.3780054838,-1.7577576237,,,
7.7039999999,963,-3.9733334957,-2.7892072203,-2.7720031531,,,
7.7079999999,963,-3.9894863397,-1.4647002583,-2.3746133395,,,
7.7119999998,964,-3.1115364736,0.3730828584,-1.3646494819,,,
7.7159999998,964,-2.5434857452,1.1880029726,-0.9310555444,,,
7.7200000000,965,-2.4166464690,0.6639882450,-1.2870984249,,,
7.7239999999,965,-2.6297613994,-0.9474206904,-2.1791549911,,,
7.7279999999,966,-3.8315591804,-3.8257514765,-3.8535571832,,,
7.7319999998,966,-6.3744841725,-7.7806091120,-6.4083687944,,,
7.7359999998,967,-9.0330003484,-11.2130447361,-8.7039649771,,,
7.7399999998,967,-9.9715865221,-12.1479413633,-9.0943260554,,,
7.7439999999,968,-8.5643292669,-10.0296271370,-7.0977158993,,,
7.7479999999,968,-5.3066371464,-5.6166724828,-3.4484074774,,,
7.7519999999,969,-0.6461198634,0.2743249999,1.1179268891,,,
7.7559999998,969,4.7728077585,6.6876769427,5.9668061437,,,
7.7599999998,970,9.2562854145,11.7585391049,9.7782251839,,,
7.7639999997,970,11.0451629122,13.6450248673,11.1026605516,,,
7.7679999999,971,10.1740072761,12.3456339900,9.9245471542,,,
7.7719999999,971,8.2066461609,9.5045490077,7.6559721407,,,
7.7759999998,972,6.2329827437,6.4696919633,5.4487045754,,,
7.7799999998,972,4.2956815187,3.6088781682,3.4711991151,,,
7.7840000000,973,2.6076316359,1.3368254935,1.8693140296,,,
7.7879999999,973,1.7840536439,0.3003962211,1.1431066315,,,
7.7919999999,974,1.5667030736,0.1749387864,1.0986281217,,,
7.7959999999,974,0.7249132684,-0.4121781077,0.5721328151,,,
7.7999999998,975,-1.1914711001,-2.1179154022,-1.0743302771,,,
7.8039999998,975,-3.0802207034,-3.9913016705,-2.9966275909,,,
